Chrom.1		Chrom.1		Chrom.1		Chrom.1		Chrom.1		Chrom.1		Chrom.1		
UV		Conductivity		Gradient Concentration		System Flow		Pressure		Fraction		Run Log		
ml	mAU	ml	mS/cm	ml	%B	ml	ml/min	ml	MPa	ml	Fraction	ml	Logbook	
0.04	-0.68	0.04	17.37	0.04	0	0.04	3	0.04	0	79.0285	"T1"	0	"Manual Run 12/13/2023 6:24:26 PM +00:00 Result: /DefaultHome/Felipe/20231213_JB6_1_69_15N_R1 User Default at computer DESKTOP-8L29TUR is in control (Manual)"	
0.24	-0.3198856	0.24	17.37	0.24	0	0.24	3	0.24	0	79.5786	"T2"	0	"Instrument information:SystemName = ( 00000000000002052751), FW Version = ( V2.01.29 )"	
0.44	-0.07001663	0.44	17.37	0.44	0	0.44	3	0.44	0	84.5797	"T3"	0.04	"SampleValve Buffer"	
0.64	-0.45	0.64	17.37	0.64	0	0.64	3	0.64	0.03	89.5908	"T4"	0.7699	"Pause Infinite min 12/13/2023 6:24:48 PM +00:00"	
0.84	-0.4	0.84	17.37	0.84	0	0.84	3	0.84	0.04	94.5918	"T5"	0.8099	"Pause Infinite min 12/13/2023 6:24:49 PM +00:00"	
1.04	-0.1206765	1.04	17.37	1.04	0	1.04	3	1.04	0.05	99.5829	"T6"	0.8099	"Continue 12/13/2023 6:25:04 PM +00:00"	
1.24	0.448601	1.24	17.37	1.24	0	1.24	3	1.24	0.04	104.584	"T7"	0.8399	"SampleValve Sample"	
1.44	1.12	1.44	17.36	1.44	0	1.44	3	1.44	0.05	109.5951	"T8"	0.8399	"WashValve Column"	
1.64	1.61	1.64	17.36	1.64	0	1.64	3	1.64	0.05	114.5961	"T9"	4.0199	"Pause Infinite min 12/13/2023 6:26:08 PM +00:00"	
1.84	1.74	1.84	17.35	1.84	0	1.84	3	1.84	0.05	119.6072	"T10"	4.0599	"Pause Infinite min 12/13/2023 6:26:09 PM +00:00"	
2.04	1.550998	2.04	17.35	2.04	0	2.04	3	2.04	0.05	124.5883	"T11"	4.0599	"Continue 12/13/2023 6:26:16 PM +00:00"	
2.24	1.260745	2.24	17.35	2.24	0	2.24	3	2.24	0.05	129.5977	"T12"	78.8784	"Pause Infinite min 12/13/2023 6:51:13 PM +00:00"	
2.44	1.050412	2.44	17.34	2.44	0	2.44	3	2.44	0.05	134.595	"T13"	78.9084	"Pause Infinite min 12/13/2023 6:51:14 PM +00:00"	
2.639	0.98	2.639	17.34	2.639	0	2.639	3	2.639	0.05	139.6023	"T14"	78.9084	"Continue 12/13/2023 6:51:32 PM +00:00"	
2.839	1.03	2.839	17.35	2.839	0	2.839	3	2.839	0.05	144.5795	"T15"	78.9384	"SampleValve Buffer"	
3.039	1.11	3.039	17.35	3.039	0	3.039	3	3.039	0.05	149.6068	"T16"	79.4785	"Pause Infinite min 12/13/2023 6:51:44 PM +00:00"	
3.239	1.589735	3.239	17.36	3.239	0	3.239	3	3.239	0.05	154.584	"T17"	79.5085	"Pause Infinite min 12/13/2023 6:51:45 PM +00:00"	
3.439	6.848897	3.439	17.36	3.439	0	3.439	3	3.439	0.05	159.5913	"T18"	79.5085	"Fractionation 5.0 {ml}"	
3.639	31.65	3.639	17.36	3.639	0	3.639	3	3.639	0.05	164.5885	"T19"	79.0285	"Delay volume collection started"	
3.839	100.63	3.839	17.36	3.839	0	3.839	3	3.839	0.05	169.5958	"T20"	79.5085	"Continue 12/13/2023 6:52:20 PM +00:00"	
4.039	534.0322	4.039	17.34	4.039	0	4.039	3	4.039	0.04	174.603	"T21"	79.0585	"OutletValve Collection"	
4.239	621.92	4.239	17.33	4.239	0	4.239	3	4.239	0.07	179.5803	"T22"	79.5786	"Fractionation\Peak collection started"	
4.439	747.68	4.439	17.32	4.439	0	4.439	3	4.439	0.07	184.6075	"T23"	100.323	"Pause Infinite min 12/13/2023 6:59:17 PM +00:00"	
4.639	949.0855	4.639	17.30095	4.639	0	4.639	3	4.639	0.07	189.5848	"T24"	100.363	"Pause Infinite min 12/13/2023 6:59:18 PM +00:00"	
4.839	1187.427	4.839	17.3	4.839	0	4.839	3	4.839	0.07	194.582	"T25"	100.363	"Continue 12/13/2023 6:59:54 PM +00:00"	
5.039	1397.617	5.039	17.29	5.039	0	5.039	3	5.039	0.07	199.5893	"T26"	122.9478	"Pause Infinite min 12/13/2023 7:07:25 PM +00:00"	
5.239	1569.45	5.239	17.28	5.239	0	5.239	3	5.239	0.05	204.5965	"T27"	122.9678	"Pause Infinite min 12/13/2023 7:07:26 PM +00:00"	
5.439	1722.41	5.439	17.27	5.439	0	5.439	3	5.439	0.05	209.5938	"T28"	122.9678	"Continue 12/13/2023 7:08:06 PM +00:00"	
5.639	1864.421	5.639	17.26	5.639	0	5.639	3	5.639	0.05	214.601	"T29"	145.2594	"Pause Infinite min 12/13/2023 7:15:32 PM +00:00"	
5.839	1967.504	5.839	17.24118	5.839	0	5.839	3	5.839	0.05	219.5983	"T30"	145.2594	"Pause Infinite min 12/13/2023 7:15:32 PM +00:00"	
6.039	1999.968	6.039	17.23	6.039	0	6.039	3	6.039	0.07	225.0755	"Waste"	145.2594	"Gradient 20.0 {%B} 0.0 {ml}"	
6.239	2000	6.239	17.22	6.239	0	6.239	3	6.239	0.07			145.2594	"Continue 12/13/2023 7:15:53 PM +00:00"	
6.439	2000	6.439	17.21	6.439	0	6.439	3	6.439	0.07			166.2279	"Pause Infinite min 12/13/2023 7:22:53 PM +00:00"	
6.639	2000	6.639	17.19	6.639	0	6.639	3	6.639	0.05			166.2479	"Pause Infinite min 12/13/2023 7:22:53 PM +00:00"	
6.839	2000	6.839	17.18	6.839	0	6.839	3	6.839	0.07			166.2479	"Gradient 40.0 {%B} 0.0 {ml}"	
7.039	2000	7.039	17.17	7.039	0	7.039	3	7.039	0.05			166.2479	"Continue 12/13/2023 7:23:12 PM +00:00"	
7.239	2000	7.239	17.17	7.239	0	7.239	3	7.239	0.07			191.494	"Gradient 100.0 {%B} 0.0 {ml}"	
7.439	2000	7.439	17.17	7.439	0	7.439	3	7.439	0.05			191.504	"BufferValve Buffer B"	
7.638	2000	7.638	17.18846	7.638	0	7.638	3	7.638	0.07			225.0755	"Pause Infinite min 12/13/2023 7:42:49 PM +00:00"	
7.838	2000	7.838	17.20842	7.838	0	7.838	3	7.838	0.07			225.0755	"WARNING 13: Last tube has been reached; change tubes in the fraction collector and press ‘Continue’ to continue the run with fractionation."	
8.038	2000	8.038	17.23	8.038	0	8.038	3	8.038	0.07			225.0755	"<ACK> Default WARNING 13: Last tube has been reached; change tubes in the fraction collector and press ‘Continue’ to continue the run with fractionation. has been acknowledged"	
8.238	2000	8.238	17.26	8.238	0	8.238	3	8.238	0.07			225.0755	"BufferValve Buffer A"	
8.438	2000	8.438	17.29	8.438	0	8.438	3	8.438	0.07			225.0755	"SampleValve Buffer"	
8.638	2000	8.638	17.32	8.638	0	8.638	3	8.638	0.07			225.0755	"WashValve Waste"	
8.838	2000	8.838	17.34	8.838	0	8.838	3	8.838	0.07			225.0755	"OutletValve Waste"	
9.038	2000	9.038	17.35	9.038	0	9.038	3	9.038	0.07			225.0755	"End 12/13/2023 7:42:57 PM +00:00"	
9.238	2000	9.238	17.36	9.238	0	9.238	3	9.238	0.05					
9.438	2000	9.438	17.36	9.438	0	9.438	3	9.438	0.07					
9.638	2000	9.638	17.36	9.638	0	9.638	3	9.638	0.07					
9.838	2000	9.838	17.36	9.838	0	9.838	3	9.838	0.07					
10.038	2000	10.038	17.36	10.038	0	10.038	3	10.038	0.05					
10.238	2000	10.238	17.35	10.238	0	10.238	3	10.238	0.07					
10.438	2000	10.438	17.35	10.438	0	10.438	3	10.438	0.07					
10.638	2000	10.638	17.34	10.638	0	10.638	3	10.638	0.07					
10.838	2000	10.838	17.34	10.838	0	10.838	3	10.838	0.07					
11.038	2000	11.038	17.34	11.038	0	11.038	3	11.038	0.07					
11.238	2000	11.238	17.33	11.238	0	11.238	3	11.238	0.05					
11.438	2000	11.438	17.33	11.438	0	11.438	3	11.438	0.07					
11.638	2000	11.638	17.33	11.638	0	11.638	3	11.638	0.07					
11.838	2000	11.838	17.33	11.838	0	11.838	3	11.838	0.07					
12.038	2000	12.038	17.32	12.038	0	12.038	3	12.038	0.07					
12.238	2000	12.238	17.32	12.238	0	12.238	3	12.238	0.07					
12.438	2000	12.438	17.32	12.438	0	12.438	3	12.438	0.07					
12.638	2000	12.638	17.32	12.638	0	12.638	3	12.638	0.07					
12.837	2000	12.837	17.32	12.837	0	12.837	3	12.837	0.07					
13.037	2000	13.037	17.32	13.037	0	13.037	3	13.037	0.07					
13.237	2000	13.237	17.32	13.237	0	13.237	3	13.237	0.07					
13.437	2000	13.437	17.32	13.437	0	13.437	3	13.437	0.07					
13.637	2000	13.637	17.32	13.637	0	13.637	3	13.637	0.07					
13.837	2000	13.837	17.32	13.837	0	13.837	3	13.837	0.07					
14.037	2000	14.037	17.32	14.037	0	14.037	3	14.037	0.07					
14.237	2000	14.237	17.32	14.237	0	14.237	3	14.237	0.07					
14.437	2000	14.437	17.32	14.437	0	14.437	3	14.437	0.05					
14.637	2000	14.637	17.32	14.637	0	14.637	3	14.637	0.07					
14.837	2000	14.837	17.32	14.837	0	14.837	3	14.837	0.07					
15.037	2000	15.037	17.32	15.037	0	15.037	3	15.037	0.07					
15.237	2000	15.237	17.32	15.237	0	15.237	3	15.237	0.07					
15.437	2000	15.437	17.32	15.437	0	15.437	3	15.437	0.07					
15.637	2000	15.637	17.32	15.637	0	15.637	3	15.637	0.07					
15.837	2000	15.837	17.32	15.837	0	15.837	3	15.837	0.05					
16.037	2000	16.037	17.32	16.037	0	16.037	3	16.037	0.07					
16.237	2000	16.237	17.32	16.237	0	16.237	3	16.237	0.07					
16.437	2000	16.437	17.32	16.437	0	16.437	3	16.437	0.07					
16.637	2000	16.637	17.32	16.637	0	16.637	3	16.637	0.07					
16.837	2000	16.837	17.31	16.837	0	16.837	3	16.837	0.07					
17.037	2000	17.037	17.31	17.037	0	17.037	3	17.037	0.07					
17.237	2000	17.237	17.31	17.237	0	17.237	3	17.237	0.07					
17.437	2000	17.437	17.31	17.437	0	17.437	3	17.437	0.07					
17.637	2000	17.637	17.31	17.637	0	17.637	3	17.637	0.07					
17.836	2000	17.836	17.31	17.836	0	17.836	3	17.836	0.07					
18.036	2000	18.036	17.31	18.036	0	18.036	3	18.036	0.07					
18.236	2000	18.236	17.31	18.236	0	18.236	3	18.236	0.07					
18.436	2000	18.436	17.31	18.436	0	18.436	3	18.436	0.07					
18.636	2000	18.636	17.3	18.636	0	18.636	3	18.636	0.07					
18.836	2000	18.836	17.3	18.836	0	18.836	3	18.836	0.07					
19.036	2000	19.036	17.3	19.036	0	19.036	3	19.036	0.08					
19.236	2000	19.236	17.3	19.236	0	19.236	3	19.236	0.08					
19.436	2000	19.436	17.3	19.436	0	19.436	3	19.436	0.07					
19.636	2000	19.636	17.3	19.636	0	19.636	3	19.636	0.07					
19.836	2000	19.836	17.29	19.836	0	19.836	3	19.836	0.07					
20.036	2000	20.036	17.29	20.036	0	20.036	3	20.036	0.07					
20.236	2000	20.236	17.28433	20.236	0	20.236	3	20.236	0.07					
20.436	2000	20.436	17.28	20.436	0	20.436	3	20.436	0.07					
20.636	2000	20.636	17.28	20.636	0	20.636	3	20.636	0.07					
20.836	2000	20.836	17.28	20.836	0	20.836	3	20.836	0.07					
21.036	2000	21.036	17.28	21.036	0	21.036	3	21.036	0.07					
21.236	2000	21.236	17.28	21.236	0	21.236	3	21.236	0.07					
21.436	2000	21.436	17.28	21.436	0	21.436	3	21.436	0.07					
21.636	2000	21.636	17.28	21.636	0	21.636	3	21.636	0.07					
21.836	2000	21.836	17.28	21.836	0	21.836	3	21.836	0.07					
22.036	2000	22.036	17.28	22.036	0	22.036	3	22.036	0.07					
22.236	2000	22.236	17.28	22.236	0	22.236	3	22.236	0.07					
22.436	2000	22.436	17.28	22.436	0	22.436	3	22.436	0.07					
22.636	2000	22.636	17.27	22.636	0	22.636	3	22.636	0.05					
22.836	2000	22.836	17.27	22.836	0	22.836	3	22.836	0.07					
23.035	2000	23.035	17.27	23.035	0	23.035	3	23.035	0.07					
23.235	2000	23.235	17.26	23.235	0	23.235	3	23.235	0.05					
23.435	2000	23.435	17.26	23.435	0	23.435	3	23.435	0.07					
23.635	2000	23.635	17.26	23.635	0	23.635	3	23.635	0.07					
23.835	2000	23.835	17.26	23.835	0	23.835	3	23.835	0.07					
24.035	2000	24.035	17.26	24.035	0	24.035	3	24.035	0.07					
24.235	2000	24.235	17.26	24.235	0	24.235	3	24.235	0.07					
24.435	2000	24.435	17.26	24.435	0	24.435	3	24.435	0.07					
24.635	2000	24.635	17.26	24.635	0	24.635	3	24.635	0.07					
24.835	2000	24.835	17.26	24.835	0	24.835	3	24.835	0.07					
25.035	2000	25.035	17.26	25.035	0	25.035	3	25.035	0.08					
25.235	2000	25.235	17.26	25.235	0	25.235	3	25.235	0.08					
25.435	2000	25.435	17.26	25.435	0	25.435	3	25.435	0.07					
25.635	2000	25.635	17.26	25.635	0	25.635	3	25.635	0.07					
25.835	2000	25.835	17.26	25.835	0	25.835	3	25.835	0.07					
26.035	2000	26.035	17.26	26.035	0	26.035	3	26.035	0.07					
26.235	2000	26.235	17.26	26.235	0	26.235	3	26.235	0.07					
26.435	2000	26.435	17.26	26.435	0	26.435	3	26.435	0.07					
26.635	2000	26.635	17.26	26.635	0	26.635	3	26.635	0.07					
26.835	2000	26.835	17.26	26.835	0	26.835	3	26.835	0.07					
27.035	2000	27.035	17.26	27.035	0	27.035	3	27.035	0.08					
27.235	2000	27.235	17.26	27.235	0	27.235	3	27.235	0.07					
27.435	2000	27.435	17.26	27.435	0	27.435	3	27.435	0.07					
27.635	2000	27.635	17.26	27.635	0	27.635	3	27.635	0.07					
27.835	2000	27.835	17.26	27.835	0	27.835	3	27.835	0.07					
28.034	2000	28.034	17.26	28.034	0	28.034	3	28.034	0.07					
28.234	2000	28.234	17.26	28.234	0	28.234	3	28.234	0.07					
28.434	2000	28.434	17.26	28.434	0	28.434	3	28.434	0.07					
28.634	2000	28.634	17.26	28.634	0	28.634	3	28.634	0.08					
28.834	2000	28.834	17.26	28.834	0	28.834	3	28.834	0.07					
29.034	2000	29.034	17.26	29.034	0	29.034	3	29.034	0.07					
29.234	2000	29.234	17.26	29.234	0	29.234	3	29.234	0.08					
29.434	2000	29.434	17.26	29.434	0	29.434	3	29.434	0.08					
29.634	2000	29.634	17.26	29.634	0	29.634	3	29.634	0.07					
29.834	2000	29.834	17.26	29.834	0	29.834	3	29.834	0.07					
30.034	2000	30.034	17.25	30.034	0	30.034	3	30.034	0.07					
30.234	2000	30.234	17.25	30.234	0	30.234	3	30.234	0.07					
30.434	2000	30.434	17.25	30.434	0	30.434	3	30.434	0.07					
30.634	2000	30.634	17.25	30.634	0	30.634	3	30.634	0.07					
30.834	2000	30.834	17.25	30.834	0	30.834	3	30.834	0.07					
31.034	2000	31.034	17.26	31.034	0	31.034	3	31.034	0.07					
31.234	2000	31.234	17.26	31.234	0	31.234	3	31.234	0.07					
31.434	2000	31.434	17.26	31.434	0	31.434	3	31.434	0.07					
31.634	2000	31.634	17.26	31.634	0	31.634	3	31.634	0.07					
31.834	2000	31.834	17.26	31.834	0	31.834	3	31.834	0.07					
32.034	2000	32.034	17.26	32.034	0	32.034	3	32.034	0.08					
32.234	2000	32.234	17.26	32.234	0	32.234	3	32.234	0.08					
32.434	2000	32.434	17.26	32.434	0	32.434	3	32.434	0.07					
32.634	2000	32.634	17.26	32.634	0	32.634	3	32.634	0.07					
32.834	2000	32.834	17.26	32.834	0	32.834	3	32.834	0.07					
33.033	2000	33.033	17.26	33.033	0	33.033	3	33.033	0.07					
33.233	2000	33.233	17.27	33.233	0	33.233	3	33.233	0.07					
33.433	2000	33.433	17.27	33.433	0	33.433	3	33.433	0.07					
33.633	2000	33.633	17.27	33.633	0	33.633	3	33.633	0.08					
33.833	2000	33.833	17.27	33.833	0	33.833	3	33.833	0.07					
34.033	2000	34.033	17.27	34.033	0	34.033	3	34.033	0.07					
34.233	2000	34.233	17.27	34.233	0	34.233	3	34.233	0.08					
34.433	2000	34.433	17.27	34.433	0	34.433	3	34.433	0.07					
34.633	2000	34.633	17.27	34.633	0	34.633	3	34.633	0.07					
34.833	2000	34.833	17.27	34.833	0	34.833	3	34.833	0.08					
35.033	2000	35.033	17.27	35.033	0	35.033	3	35.033	0.08					
35.233	2000	35.233	17.27	35.233	0	35.233	3	35.233	0.07					
35.433	2000	35.433	17.27	35.433	0	35.433	3	35.433	0.07					
35.633	2000	35.633	17.27	35.633	0	35.633	3	35.633	0.07					
35.833	2000	35.833	17.27	35.833	0	35.833	3	35.833	0.07					
36.033	2000	36.033	17.27	36.033	0	36.033	3	36.033	0.07					
36.233	2000	36.233	17.26	36.233	0	36.233	3	36.233	0.07					
36.433	2000	36.433	17.26	36.433	0	36.433	3	36.433	0.07					
36.633	2000	36.633	17.26	36.633	0	36.633	3	36.633	0.07					
36.833	2000	36.833	17.26	36.833	0	36.833	3	36.833	0.08					
37.033	2000	37.033	17.26	37.033	0	37.033	3	37.033	0.07					
37.233	2000	37.233	17.27	37.233	0	37.233	3	37.233	0.07					
37.433	2000	37.433	17.27	37.433	0	37.433	3	37.433	0.08					
37.633	2000	37.633	17.27	37.633	0	37.633	3	37.633	0.08					
37.833	2000	37.833	17.27	37.833	0	37.833	3	37.833	0.08					
38.032	2000	38.032	17.27	38.032	0	38.032	3	38.032	0.07					
38.232	2000	38.232	17.27	38.232	0	38.232	3	38.232	0.07					
38.432	2000	38.432	17.27	38.432	0	38.432	3	38.432	0.07					
38.632	2000	38.632	17.27	38.632	0	38.632	3	38.632	0.08					
38.832	2000	38.832	17.26	38.832	0	38.832	3	38.832	0.07					
39.032	2000	39.032	17.26	39.032	0	39.032	3	39.032	0.07					
39.232	2000	39.232	17.26	39.232	0	39.232	3	39.232	0.07					
39.432	2000	39.432	17.26	39.432	0	39.432	3	39.432	0.08					
39.632	2000	39.632	17.26	39.632	0	39.632	3	39.632	0.07					
39.832	2000	39.832	17.27	39.832	0	39.832	3	39.832	0.07					
40.032	2000	40.032	17.27	40.032	0	40.032	3	40.032	0.07					
40.232	2000	40.232	17.27	40.232	0	40.232	3	40.232	0.08					
40.432	2000	40.432	17.27	40.432	0	40.432	3	40.432	0.08					
40.632	2000	40.632	17.27	40.632	0	40.632	3	40.632	0.08					
40.832	2000	40.832	17.27	40.832	0	40.832	3	40.832	0.08					
41.032	2000	41.032	17.27	41.032	0	41.032	3	41.032	0.07					
41.232	2000	41.232	17.27	41.232	0	41.232	3	41.232	0.08					
41.432	2000	41.432	17.27	41.432	0	41.432	3	41.432	0.08					
41.632	2000	41.632	17.27	41.632	0	41.632	3	41.632	0.08					
41.832	2000	41.832	17.27	41.832	0	41.832	3	41.832	0.08					
42.032	2000	42.032	17.27	42.032	0	42.032	3	42.032	0.08					
42.232	2000	42.232	17.27	42.232	0	42.232	3	42.232	0.07					
42.432	2000	42.432	17.27	42.432	0	42.432	3	42.432	0.08					
42.632	2000	42.632	17.27	42.632	0	42.632	3	42.632	0.08					
42.831	2000	42.831	17.27	42.831	0	42.831	3	42.831	0.07					
43.031	2000	43.031	17.27	43.031	0	43.031	3	43.031	0.08					
43.231	2000	43.231	17.26	43.231	0	43.231	3	43.231	0.07					
43.431	2000	43.431	17.26	43.431	0	43.431	3	43.431	0.08					
43.631	2000	43.631	17.26	43.631	0	43.631	3	43.631	0.08					
43.831	2000	43.831	17.26	43.831	0	43.831	3	43.831	0.07					
44.031	2000	44.031	17.26	44.031	0	44.031	3	44.031	0.08					
44.231	2000	44.231	17.26	44.231	0	44.231	3	44.231	0.07					
44.431	2000	44.431	17.26	44.431	0	44.431	3	44.431	0.07					
44.631	2000	44.631	17.26	44.631	0	44.631	3	44.631	0.07					
44.831	2000	44.831	17.26	44.831	0	44.831	3	44.831	0.08					
45.031	2000	45.031	17.26	45.031	0	45.031	3	45.031	0.07					
45.231	2000	45.231	17.26	45.231	0	45.231	3	45.231	0.08					
45.431	2000	45.431	17.26	45.431	0	45.431	3	45.431	0.08					
45.631	2000	45.631	17.26	45.631	0	45.631	3	45.631	0.08					
45.831	2000	45.831	17.26	45.831	0	45.831	3	45.831	0.08					
46.031	2000	46.031	17.26	46.031	0	46.031	3	46.031	0.08					
46.231	2000	46.231	17.26	46.231	0	46.231	3	46.231	0.08					
46.431	2000	46.431	17.27	46.431	0	46.431	3	46.431	0.08					
46.631	2000	46.631	17.27	46.631	0	46.631	3	46.631	0.08					
46.831	2000	46.831	17.27	46.831	0	46.831	3	46.831	0.08					
47.031	2000	47.031	17.27	47.031	0	47.031	3	47.031	0.08					
47.231	2000	47.231	17.27	47.231	0	47.231	3	47.231	0.08					
47.431	2000	47.431	17.27	47.431	0	47.431	3	47.431	0.07					
47.63	2000	47.63	17.27	47.63	0	47.63	3	47.63	0.08					
47.83	2000	47.83	17.27	47.83	0	47.83	3	47.83	0.08					
48.03	2000	48.03	17.26	48.03	0	48.03	3	48.03	0.08					
48.23	2000	48.23	17.26	48.23	0	48.23	3	48.23	0.07					
48.43	2000	48.43	17.26	48.43	0	48.43	3	48.43	0.07					
48.63	2000	48.63	17.26	48.63	0	48.63	3	48.63	0.08					
48.83	2000	48.83	17.26	48.83	0	48.83	3	48.83	0.08					
49.03	2000	49.03	17.26	49.03	0	49.03	3	49.03	0.08					
49.23	2000	49.23	17.26	49.23	0	49.23	3	49.23	0.08					
49.43	2000	49.43	17.26	49.43	0	49.43	3	49.43	0.07					
49.63	2000	49.63	17.25	49.63	0	49.63	3	49.63	0.07					
49.83	2000	49.83	17.25	49.83	0	49.83	3	49.83	0.08					
50.03	2000	50.03	17.25	50.03	0	50.03	3	50.03	0.08					
50.23	2000	50.23	17.25	50.23	0	50.23	3	50.23	0.07					
50.43	2000	50.43	17.25	50.43	0	50.43	3	50.43	0.08					
50.63	2000	50.63	17.25	50.63	0	50.63	3	50.63	0.08					
50.83	2000	50.83	17.25	50.83	0	50.83	3	50.83	0.08					
51.03	2000	51.03	17.25	51.03	0	51.03	3	51.03	0.08					
51.23	2000	51.23	17.25	51.23	0	51.23	3	51.23	0.08					
51.43	2000	51.43	17.26	51.43	0	51.43	3	51.43	0.08					
51.63	2000	51.63	17.25	51.63	0	51.63	3	51.63	0.08					
51.83	2000	51.83	17.25	51.83	0	51.83	3	51.83	0.07					
52.03	2000	52.03	17.25	52.03	0	52.03	3	52.03	0.07					
52.23	2000	52.23	17.25	52.23	0	52.23	3	52.23	0.08					
52.429	2000	52.429	17.25	52.429	0	52.429	3	52.429	0.08					
52.629	2000	52.629	17.25	52.629	0	52.629	3	52.629	0.08					
52.829	2000	52.829	17.25	52.829	0	52.829	3	52.829	0.08					
53.029	2000	53.029	17.25	53.029	0	53.029	3	53.029	0.08					
53.229	2000	53.229	17.25	53.229	0	53.229	3	53.229	0.08					
53.429	2000	53.429	17.25	53.429	0	53.429	3	53.429	0.07					
53.629	2000	53.629	17.25	53.629	0	53.629	3	53.629	0.08					
53.829	2000	53.829	17.25	53.829	0	53.829	3	53.829	0.08					
54.029	2000	54.029	17.25	54.029	0	54.029	3	54.029	0.08					
54.229	2000	54.229	17.25	54.229	0	54.229	3	54.229	0.08					
54.429	2000	54.429	17.25	54.429	0	54.429	3	54.429	0.08					
54.629	2000	54.629	17.25	54.629	0	54.629	3	54.629	0.08					
54.829	2000	54.829	17.25	54.829	0	54.829	3	54.829	0.07					
55.029	2000	55.029	17.25	55.029	0	55.029	3	55.029	0.08					
55.229	2000	55.229	17.25	55.229	0	55.229	3	55.229	0.08					
55.429	2000	55.429	17.25	55.429	0	55.429	3	55.429	0.08					
55.629	2000	55.629	17.25	55.629	0	55.629	3	55.629	0.08					
55.829	2000	55.829	17.25	55.829	0	55.829	3	55.829	0.08					
56.029	2000	56.029	17.25	56.029	0	56.029	3	56.029	0.08					
56.229	2000	56.229	17.25	56.229	0	56.229	3	56.229	0.08					
56.429	2000	56.429	17.25	56.429	0	56.429	3	56.429	0.08					
56.629	2000	56.629	17.25	56.629	0	56.629	3	56.629	0.08					
56.829	2000	56.829	17.25	56.829	0	56.829	3	56.829	0.07					
57.029	2000	57.029	17.25	57.029	0	57.029	3	57.029	0.08					
57.229	2000	57.229	17.25	57.229	0	57.229	3	57.229	0.08					
57.428	2000	57.428	17.25	57.428	0	57.428	3	57.428	0.07					
57.628	2000	57.628	17.25	57.628	0	57.628	3	57.628	0.08					
57.828	2000	57.828	17.25	57.828	0	57.828	3	57.828	0.08					
58.028	2000	58.028	17.25	58.028	0	58.028	3	58.028	0.07					
58.228	2000	58.228	17.25	58.228	0	58.228	3	58.228	0.08					
58.428	2000	58.428	17.25	58.428	0	58.428	3	58.428	0.08					
58.628	2000	58.628	17.25	58.628	0	58.628	3	58.628	0.08					
58.828	2000	58.828	17.25	58.828	0	58.828	3	58.828	0.08					
59.028	2000	59.028	17.25	59.028	0	59.028	3	59.028	0.08					
59.228	2000	59.228	17.25	59.228	0	59.228	3	59.228	0.08					
59.428	2000	59.428	17.25	59.428	0	59.428	3	59.428	0.08					
59.628	2000	59.628	17.25	59.628	0	59.628	3	59.628	0.08					
59.828	2000	59.828	17.25	59.828	0	59.828	3	59.828	0.08					
60.028	2000	60.028	17.25	60.028	0	60.028	3	60.028	0.08					
60.228	2000	60.228	17.25	60.228	0	60.228	3	60.228	0.08					
60.428	2000	60.428	17.25	60.428	0	60.428	3	60.428	0.08					
60.628	2000	60.628	17.25	60.628	0	60.628	3	60.628	0.08					
60.828	2000	60.828	17.25	60.828	0	60.828	3	60.828	0.07					
61.028	2000	61.028	17.25	61.028	0	61.028	3	61.028	0.08					
61.228	2000	61.228	17.25	61.228	0	61.228	3	61.228	0.07					
61.428	2000	61.428	17.25	61.428	0	61.428	3	61.428	0.08					
61.628	2000	61.628	17.25	61.628	0	61.628	3	61.628	0.08					
61.828	2000	61.828	17.25	61.828	0	61.828	3	61.828	0.08					
62.028	2000	62.028	17.25	62.028	0	62.028	3	62.028	0.08					
62.227	2000	62.227	17.25	62.227	0	62.227	3	62.227	0.08					
62.427	2000	62.427	17.25	62.427	0	62.427	3	62.427	0.08					
62.627	2000	62.627	17.26	62.627	0	62.627	3	62.627	0.08					
62.827	2000	62.827	17.26	62.827	0	62.827	3	62.827	0.08					
63.027	2000	63.027	17.26	63.027	0	63.027	3	63.027	0.08					
63.227	2000	63.227	17.26	63.227	0	63.227	3	63.227	0.08					
63.427	2000	63.427	17.27	63.427	0	63.427	3	63.427	0.08					
63.627	2000	63.627	17.27	63.627	0	63.627	3	63.627	0.08					
63.827	2000	63.827	17.27	63.827	0	63.827	3	63.827	0.08					
64.027	2000	64.027	17.28	64.027	0	64.027	3	64.027	0.08					
64.227	2000	64.227	17.28	64.227	0	64.227	3	64.227	0.08					
64.427	2000	64.427	17.29	64.427	0	64.427	3	64.427	0.08					
64.627	2000	64.627	17.29	64.627	0	64.627	3	64.627	0.08					
64.827	2000	64.827	17.29	64.827	0	64.827	3	64.827	0.08					
65.027	2000	65.027	17.29	65.027	0	65.027	3	65.027	0.08					
65.227	2000	65.227	17.3	65.227	0	65.227	3	65.227	0.08					
65.427	2000	65.427	17.3	65.427	0	65.427	3	65.427	0.08					
65.627	2000	65.627	17.3	65.627	0	65.627	3	65.627	0.08					
65.827	2000	65.827	17.3	65.827	0	65.827	3	65.827	0.08					
66.027	2000	66.027	17.3	66.027	0	66.027	3	66.027	0.08					
66.227	2000	66.227	17.3	66.227	0	66.227	3	66.227	0.08					
66.427	2000	66.427	17.3	66.427	0	66.427	3	66.427	0.08					
66.627	2000	66.627	17.3	66.627	0	66.627	3	66.627	0.08					
66.827	2000	66.827	17.3	66.827	0	66.827	3	66.827	0.08					
67.026	2000	67.026	17.3	67.026	0	67.026	3	67.026	0.08					
67.226	2000	67.226	17.29	67.226	0	67.226	3	67.226	0.08					
67.426	2000	67.426	17.29	67.426	0	67.426	3	67.426	0.08					
67.626	2000	67.626	17.29	67.626	0	67.626	3	67.626	0.08					
67.826	2000	67.826	17.29	67.826	0	67.826	3	67.826	0.08					
68.026	2000	68.026	17.28	68.026	0	68.026	3	68.026	0.08					
68.226	2000	68.226	17.28	68.226	0	68.226	3	68.226	0.08					
68.426	2000	68.426	17.28	68.426	0	68.426	3	68.426	0.08					
68.626	2000	68.626	17.28	68.626	0	68.626	3	68.626	0.08					
68.826	2000	68.826	17.28	68.826	0	68.826	3	68.826	0.08					
69.026	2000	69.026	17.28	69.026	0	69.026	3	69.026	0.08					
69.226	2000	69.226	17.27	69.226	0	69.226	3	69.226	0.08					
69.426	2000	69.426	17.27	69.426	0	69.426	3	69.426	0.08					
69.626	2000	69.626	17.27	69.626	0	69.626	3	69.626	0.08					
69.826	2000	69.826	17.27	69.826	0	69.826	3	69.826	0.08					
70.026	2000	70.026	17.27	70.026	0	70.026	3	70.026	0.08					
70.226	2000	70.226	17.27	70.226	0	70.226	3	70.226	0.08					
70.426	2000	70.426	17.28	70.426	0	70.426	3	70.426	0.08					
70.626	2000	70.626	17.28	70.626	0	70.626	3	70.626	0.08					
70.826	2000	70.826	17.28	70.826	0	70.826	3	70.826	0.08					
71.026	2000	71.026	17.28	71.026	0	71.026	3	71.026	0.08					
71.226	2000	71.226	17.28	71.226	0	71.226	3	71.226	0.08					
71.426	2000	71.426	17.29	71.426	0	71.426	3	71.426	0.09					
71.626	2000	71.626	17.29	71.626	0	71.626	3	71.626	0.08					
71.826	2000	71.826	17.29	71.826	0	71.826	3	71.826	0.08					
72.025	2000	72.025	17.29	72.025	0	72.025	3	72.025	0.09					
72.225	2000	72.225	17.29	72.225	0	72.225	3	72.225	0.08					
72.425	2000	72.425	17.3	72.425	0	72.425	3	72.425	0.08					
72.625	2000	72.625	17.3	72.625	0	72.625	3	72.625	0.08					
72.825	2000	72.825	17.3	72.825	0	72.825	3	72.825	0.09					
73.025	2000	73.025	17.3	73.025	0	73.025	3	73.025	0.09					
73.225	2000	73.225	17.29	73.225	0	73.225	3	73.225	0.09					
73.425	2000	73.425	17.29	73.425	0	73.425	3	73.425	0.09					
73.625	2000	73.625	17.29	73.625	0	73.625	3	73.625	0.09					
73.825	2000	73.825	17.29	73.825	0	73.825	3	73.825	0.09					
74.025	2000	74.025	17.29	74.025	0	74.025	3	74.025	0.08					
74.225	2000	74.225	17.29	74.225	0	74.225	3	74.225	0.09					
74.425	2000	74.425	17.29	74.425	0	74.425	3	74.425	0.09					
74.625	2000	74.625	17.29	74.625	0	74.625	3	74.625	0.09					
74.825	2000	74.825	17.3	74.825	0	74.825	3	74.825	0.08					
75.025	2000	75.025	17.3	75.025	0	75.025	3	75.025	0.09					
75.225	2000	75.225	17.3	75.225	0	75.225	3	75.225	0.08					
75.425	2000	75.425	17.3	75.425	0	75.425	3	75.425	0.08					
75.625	2000	75.625	17.3	75.625	0	75.625	3	75.625	0.08					
75.825	2000	75.825	17.3	75.825	0	75.825	3	75.825	0.09					
76.025	2000	76.025	17.3	76.025	0	76.025	3	76.025	0.09					
76.225	2000	76.225	17.31	76.225	0	76.225	3	76.225	0.09					
76.425	2000	76.425	17.31	76.425	0	76.425	3	76.425	0.09					
76.625	2000	76.625	17.31	76.625	0	76.625	3	76.625	0.09					
76.824	2000	76.824	17.31	76.824	0	76.824	3	76.824	0.08					
77.024	2000	77.024	17.31	77.024	0	77.024	3	77.024	0.08					
77.224	2000	77.224	17.31	77.224	0	77.224	3	77.224	0.09					
77.424	2000	77.424	17.31	77.424	0	77.424	3	77.424	0.08					
77.624	2000	77.624	17.31	77.624	0	77.624	3	77.624	0.08					
77.824	2000	77.824	17.32	77.824	0	77.824	3	77.824	0.08					
78.024	2000	78.024	17.32	78.024	0	78.024	3	78.024	0.09					
78.224	2000	78.224	17.33	78.224	0	78.224	3	78.224	0.08					
78.424	2000	78.424	17.34	78.424	0	78.424	3	78.424	0.09					
78.624	2000	78.624	17.34	78.624	0	78.624	3	78.624	0.08					
78.824	2000	78.824	17.34	78.824	0	78.824	3	78.824	0.04					
79.024	2000	79.024	17.34	79.024	0	79.024	3	79.024	0.08					
79.224	2000	79.224	17.33	79.224	0	79.224	3	79.224	0.09					
79.424	2000	79.424	17.32	79.424	0	79.424	3	79.424	0.04					
79.624	2000	79.624	17.32	79.624	0	79.624	3	79.624	0.08					
79.824	2000	79.824	17.31	79.824	0	79.824	3	79.824	0.08					
80.024	2000	80.024	17.3	80.024	0	80.024	3	80.024	0.08					
80.224	2000	80.224	17.29	80.224	0	80.224	3	80.224	0.08					
80.424	2000	80.424	17.28	80.424	0	80.424	3	80.424	0.08					
80.624	2000	80.624	17.27	80.624	0	80.624	3	80.624	0.08					
80.824	2000	80.824	17.27	80.824	0	80.824	3	80.824	0.08					
81.024	2000	81.024	17.27	81.024	0	81.024	3	81.024	0.08					
81.224	2000	81.224	17.27	81.224	0	81.224	3	81.224	0.08					
81.424	2000	81.424	17.28	81.424	0	81.424	3	81.424	0.08					
81.623	2000	81.623	17.29	81.623	0	81.623	3	81.623	0.08					
81.823	2000	81.823	17.3	81.823	0	81.823	3	81.823	0.08					
82.023	2000	82.023	17.3	82.023	0	82.023	3	82.023	0.08					
82.223	2000	82.223	17.32	82.223	0	82.223	3	82.223	0.07					
82.423	2000	82.423	17.33	82.423	0	82.423	3	82.423	0.08					
82.623	2000	82.623	17.35	82.623	0	82.623	3	82.623	0.08					
82.823	2000	82.823	17.36	82.823	0	82.823	3	82.823	0.08					
83.023	2000	83.023	17.38	83.023	0	83.023	3	83.023	0.08					
83.223	2000	83.223	17.39	83.223	0	83.223	3	83.223	0.08					
83.423	2000	83.423	17.40407	83.423	0	83.423	3	83.423	0.08					
83.623	2000	83.623	17.42	83.623	0	83.623	3	83.623	0.08					
83.823	2000	83.823	17.43	83.823	0	83.823	3	83.823	0.08					
84.023	2000	84.023	17.44	84.023	0	84.023	3	84.023	0.08					
84.223	1999.77	84.223	17.45	84.223	0	84.223	3	84.223	0.08					
84.423	1953.256	84.423	17.46	84.423	0	84.423	3	84.423	0.08					
84.623	1811.888	84.623	17.46	84.623	0	84.623	3	84.623	0.08					
84.823	1584.117	84.823	17.46	84.823	0	84.823	3	84.823	0.08					
85.023	1353.39	85.023	17.45	85.023	0	85.023	3	85.023	0.08					
85.223	1139.47	85.223	17.43	85.223	0	85.223	3	85.223	0.07					
85.423	956	85.423	17.40672	85.423	0	85.423	3	85.423	0.08					
85.623	788.6036	85.623	17.38	85.623	0	85.623	3	85.623	0.08					
85.823	654.7226	85.823	17.34	85.823	0	85.823	3	85.823	0.08					
86.023	551.69	86.023	17.31	86.023	0	86.023	3	86.023	0.08					
86.223	480.44	86.223	17.28	86.223	0	86.223	3	86.223	0.08					
86.422	425.17	86.422	17.25715	86.422	0	86.422	3	86.422	0.08					
86.622	381.3325	86.622	17.23726	86.622	0	86.622	3	86.622	0.08					
86.822	346.1069	86.822	17.22	86.822	0	86.822	3	86.822	0.08					
87.022	319.2663	87.022	17.22	87.022	0	87.022	3	87.022	0.08					
87.222	299.62	87.222	17.22	87.222	0	87.222	3	87.222	0.08					
87.422	282.87	87.422	17.22	87.422	0	87.422	3	87.422	0.08					
87.622	268.1181	87.622	17.23	87.622	0	87.622	3	87.622	0.08					
87.822	254.0746	87.822	17.23	87.822	0	87.822	3	87.822	0.08					
88.022	240.7372	88.022	17.23	88.022	0	88.022	3	88.022	0.07					
88.222	228.96	88.222	17.23	88.222	0	88.222	3	88.222	0.08					
88.422	218.64	88.422	17.23	88.422	0	88.422	3	88.422	0.08					
88.622	208.7986	88.622	17.24	88.622	0	88.622	3	88.622	0.08					
88.822	199.7787	88.822	17.24	88.822	0	88.822	3	88.822	0.08					
89.022	190.723	89.022	17.24	89.022	0	89.022	3	89.022	0.08					
89.222	182.42	89.222	17.24	89.222	0	89.222	3	89.222	0.07					
89.422	175.15	89.422	17.24	89.422	0	89.422	3	89.422	0.07					
89.622	168.2968	89.622	17.24	89.622	0	89.622	3	89.622	0.07					
89.822	161.7164	89.822	17.25	89.822	0	89.822	3	89.822	0.08					
90.022	155.0044	90.022	17.25	90.022	0	90.022	3	90.022	0.08					
90.222	148.61	90.222	17.25	90.222	0	90.222	3	90.222	0.08					
90.422	142.98	90.422	17.25	90.422	0	90.422	3	90.422	0.08					
90.622	137.76	90.622	17.25	90.622	0	90.622	3	90.622	0.08					
90.822	132.7747	90.822	17.26	90.822	0	90.822	3	90.822	0.07					
91.022	127.739	91.022	17.26	91.022	0	91.022	3	91.022	0.07					
91.222	122.8418	91.222	17.26	91.222	0	91.222	3	91.222	0.07					
91.421	118.59	91.421	17.26	91.421	0	91.421	3	91.421	0.08					
91.621	114.65	91.621	17.26	91.621	0	91.621	3	91.621	0.07					
91.821	110.8886	91.821	17.26	91.821	0	91.821	3	91.821	0.08					
92.021	107.1385	92.021	17.26	92.021	0	92.021	3	92.021	0.08					
92.221	103.347	92.221	17.27	92.221	0	92.221	3	92.221	0.08					
92.421	100.05	92.421	17.27	92.421	0	92.421	3	92.421	0.07					
92.621	97.07	92.621	17.27	92.621	0	92.621	3	92.621	0.07					
92.821	94.13722	92.821	17.27	92.821	0	92.821	3	92.821	0.07					
93.021	91.33704	93.021	17.27	93.021	0	93.021	3	93.021	0.07					
93.221	88.42945	93.221	17.27	93.221	0	93.221	3	93.221	0.07					
93.421	85.76022	93.421	17.27	93.421	0	93.421	3	93.421	0.08					
93.621	83.43	93.621	17.27	93.621	0	93.621	3	93.621	0.08					
93.821	81.2	93.821	17.27	93.821	0	93.821	3	93.821	0.08					
94.021	79.03	94.021	17.27967	94.021	0	94.021	3	94.021	0.08					
94.221	76.78825	94.221	17.28	94.221	0	94.221	3	94.221	0.08					
94.421	74.66108	94.421	17.28	94.421	0	94.421	3	94.421	0.08					
94.621	72.77216	94.621	17.28	94.621	0	94.621	3	94.621	0.07054199					
94.821	71.04	94.821	17.28	94.821	0	94.821	3	94.821	0.07					
95.021	69.38	95.021	17.29	95.021	0	95.021	3	95.021	0.08					
95.221	67.63068	95.221	17.29	95.221	0	95.221	3	95.221	0.08					
95.421	65.9125	95.421	17.29	95.421	0	95.421	3	95.421	0.07090008					
95.621	64.38281	95.621	17.29	95.621	0	95.621	3	95.621	0.08					
95.821	62.86	95.821	17.28	95.821	0	95.821	3	95.821	0.07108314					
96.021	61.49	96.021	17.28	96.021	0	96.021	3	96.021	0.07					
96.22	60.03696	96.22	17.28	96.22	0	96.22	3	96.22	0.07115942					
96.42	58.55725	96.42	17.28	96.42	0	96.42	3	96.42	0.08					
96.62	57.23343	96.62	17.27	96.62	0	96.62	3	96.62	0.08					
96.82	55.97	96.82	17.27	96.82	0	96.82	3	96.82	0.07					
97.02	54.68	97.02	17.27	97.02	0	97.02	3	97.02	0.08					
97.22	53.45984	97.22	17.27	97.22	0	97.22	3	97.22	0.08					
97.42	52.19711	97.42	17.27	97.42	0	97.42	3	97.42	0.07830534					
97.62	50.96739	97.62	17.27	97.62	0	97.62	3	97.62	0.08					
97.82	49.9	97.82	17.28	97.82	0	97.82	3	97.82	0.08					
98.02	48.89	98.02	17.28	98.02	0	98.02	3	98.02	0.07191457					
98.22	47.86411	98.22	17.29	98.22	0	98.22	3	98.22	0.08					
98.42	46.74727	98.42	17.3	98.42	0	98.42	3	98.42	0.08					
98.62	45.71495	98.62	17.3	98.62	0	98.62	3	98.62	0.08					
98.82	44.81	98.82	17.31	98.82	0	98.82	3	98.82	0.08					
99.02	43.95	99.02	17.31	99.02	0	99.02	3	99.02	0.07					
99.22	43.07	99.22	17.31	99.22	0	99.22	3	99.22	0.07					
99.42	42.13245	99.42	17.31	99.42	0	99.42	3	99.42	0.07					
99.62	41.29897	99.62	17.31	99.62	0	99.62	3	99.62	0.08					
99.82	40.53534	99.82	17.3	99.82	0	99.82	3	99.82	0.07					
100.02	39.77	100.02	17.3	100.02	0	100.02	3	100.02	0.08					
100.22	37.17	100.22	17.32	100.22	0	100.22	3	100.22	0.03					
100.42	37.26	100.42	17.32	100.42	0	100.42	3	100.42	0.06421816					
100.62	37.40696	100.62	17.32	100.62	0	100.62	3	100.62	0.08					
100.82	37.93934	100.82	17.31	100.82	0	100.82	3	100.82	0.08					
101.019	39.01468	101.019	17.31	101.019	0	101.019	3	101.019	0.08					
101.219	40.06	101.219	17.3	101.219	0	101.219	3	101.219	0.08					
101.419	40.94	101.419	17.3	101.419	0	101.419	3	101.419	0.07					
101.619	41.81	101.619	17.29	101.619	0	101.619	3	101.619	0.08					
101.819	43.01762	101.819	17.29	101.819	0	101.819	3	101.819	0.08					
102.019	44.84063	102.019	17.29	102.019	0	102.019	3	102.019	0.07					
102.219	46.44	102.219	17.29	102.219	0	102.219	3	102.219	0.08					
102.419	46.22	102.419	17.29	102.419	0	102.419	3	102.419	0.08					
102.619	43.91	102.619	17.29	102.619	0	102.619	3	102.619	0.07					
102.819	40.49202	102.819	17.29	102.819	0	102.819	3	102.819	0.08					
103.019	37.44215	103.019	17.29	103.019	0	103.019	3	103.019	0.08					
103.219	35.37618	103.219	17.29	103.219	0	103.219	3	103.219	0.08					
103.419	33.87	103.419	17.29	103.419	0	103.419	3	103.419	0.08					
103.619	32.75	103.619	17.29	103.619	0	103.619	3	103.619	0.08					
103.819	31.82054	103.819	17.29	103.819	0	103.819	3	103.819	0.09					
104.019	31.05721	104.019	17.29	104.019	0	104.019	3	104.019	0.08					
104.219	30.36334	104.219	17.29	104.219	0	104.219	3	104.219	0.08					
104.419	29.75	104.419	17.29	104.419	0	104.419	3	104.419	0.08					
104.619	29.22	104.619	17.29	104.619	0	104.619	3	104.619	0.08					
104.819	28.78952	104.819	17.29	104.819	0	104.819	3	104.819	0.08					
105.019	28.42921	105.019	17.29	105.019	0	105.019	3	105.019	0.08					
105.219	28.33517	105.219	17.29	105.219	0	105.219	3	105.219	0.08					
105.419	29.41	105.419	17.29	105.419	0	105.419	3	105.419	0.09					
105.619	33.47	105.619	17.29	105.619	0	105.619	3	105.619	0.09					
105.818	43.85971	105.818	17.29	105.818	0	105.818	3	105.818	0.09					
106.018	64.9248	106.018	17.29	106.018	0	106.018	3	106.018	0.09					
106.218	103.9347	106.218	17.29	106.218	0	106.218	3	106.218	0.09					
106.418	166.76	106.418	17.28	106.418	0	106.418	3	106.418	0.09					
106.618	251.88	106.618	17.27	106.618	0	106.618	3	106.618	0.09					
106.818	360.64	106.818	17.25556	106.818	0	106.818	3	106.818	0.09					
107.018	489.261	107.018	17.24	107.018	0	107.018	3	107.018	0.11					
107.218	619.2777	107.218	17.22	107.218	0	107.218	3	107.218	0.11					
107.418	718.14	107.418	17.21	107.418	0	107.418	3	107.418	0.11					
107.618	756.85	107.618	17.19	107.618	0	107.618	3	107.618	0.11					
107.818	724.49	107.818	17.17596	107.818	0	107.818	3	107.818	0.11					
108.018	624.564	108.018	17.14	108.018	0	108.018	3	108.018	0.11					
108.218	508.2906	108.218	17.06	108.218	0	108.218	3	108.218	0.11					
108.418	426.3688	108.418	16.86	108.418	0	108.418	3	108.418	0.11					
108.618	394.3	108.618	16.46788	108.618	0	108.618	3	108.618	0.11					
108.818	391.14	108.818	15.57625	108.818	0	108.818	3	108.818	0.11					
109.018	395.314	109.018	14.36	109.018	0	109.018	3	109.018	0.11					
109.218	386.3911	109.218	12.57	109.218	0	109.218	3	109.218	0.11					
109.418	356.9679	109.418	10.97	109.418	0	109.418	3	109.418	0.11					
109.618	315.54	109.618	9.12	109.618	0	109.618	3	109.618	0.11					
109.818	274.21	109.818	7.458261	109.818	0	109.818	3	109.818	0.12					
110.018	237.7976	110.018	5.650206	110.018	0	110.018	3	110.018	0.11					
110.218	206.0273	110.218	4.36	110.218	0	110.218	3	110.218	0.11					
110.418	177.067	110.418	3.36	110.418	0	110.418	3	110.418	0.12					
110.618	152.12	110.618	2.65	110.618	0	110.618	3	110.618	0.11					
110.817	132.04	110.817	2.13626	110.817	0	110.817	3	110.817	0.11					
111.017	114.805	111.017	1.760992	111.017	0	111.017	3	111.017	0.11					
111.217	101.0349	111.217	1.48	111.217	0	111.217	3	111.217	0.11					
111.417	88.79449	111.417	1.3	111.417	0	111.417	3	111.417	0.12					
111.617	78.82	111.617	1.1	111.617	0	111.617	3	111.617	0.12					
111.817	71.03	111.817	0.98	111.817	0	111.817	3	111.817	0.12					
112.017	64.17	112.017	0.8976811	112.017	0	112.017	3	112.017	0.12					
112.217	57.80652	112.217	0.82	112.217	0	112.217	3	112.217	0.12					
112.417	52.01836	112.417	0.77	112.417	0	112.417	3	112.417	0.11					
112.617	46.65	112.617	0.73	112.617	0	112.617	3	112.617	0.12					
112.817	42.14	112.817	0.69	112.817	0	112.817	3	112.817	0.11					
113.017	38.21	113.017	0.668084	113.017	0	113.017	3	113.017	0.12					
113.217	34.43734	113.217	0.64	113.217	0	113.217	3	113.217	0.12					
113.417	31.03304	113.417	0.63	113.417	0	113.417	3	113.417	0.12					
113.617	27.89927	113.617	0.62	113.617	0	113.617	3	113.617	0.12					
113.817	25.26	113.817	0.62	113.817	0	113.817	3	113.817	0.11					
114.017	22.98	114.017	0.61	114.017	0	114.017	3	114.017	0.11					
114.217	20.80067	114.217	0.61	114.217	0	114.217	3	114.217	0.11					
114.417	18.81992	114.417	0.6	114.417	0	114.417	3	114.417	0.11					
114.617	16.88036	114.617	0.6	114.617	0	114.617	3	114.617	0.11					
114.817	15.24	114.817	0.6	114.817	0	114.817	3	114.817	0.11					
115.017	13.83	115.017	0.6	115.017	0	115.017	3	115.017	0.11					
115.217	12.51705	115.217	0.6	115.217	0	115.217	3	115.217	0.11					
115.417	11.30217	115.417	0.6	115.417	0	115.417	3	115.417	0.11					
115.616	10.06191	115.616	0.59	115.616	0	115.616	3	115.616	0.11					
115.816	8.93	115.816	0.59	115.816	0	115.816	3	115.816	0.11					
116.016	7.99	116.016	0.59	116.016	0	116.016	3	116.016	0.11					
116.216	7.08884	116.216	0.59	116.216	0	116.216	3	116.216	0.12					
116.416	6.24595	116.416	0.59	116.416	0	116.416	3	116.416	0.11					
116.616	5.456359	116.616	0.59	116.616	0	116.616	3	116.616	0.12					
116.816	4.68	116.816	0.59	116.816	0	116.816	3	116.816	0.12					
117.016	3.99	117.016	0.59	117.016	0	117.016	3	117.016	0.11					
117.216	3.35	117.216	0.59	117.216	0	117.216	3	117.216	0.11					
117.416	2.779733	117.416	0.59	117.416	0	117.416	3	117.416	0.11					
117.616	2.249947	117.616	0.59	117.616	0	117.616	3	117.616	0.11					
117.816	1.711038	117.816	0.59	117.816	0	117.816	3	117.816	0.11					
118.016	1.220351	118.016	0.59	118.016	0	118.016	3	118.016	0.11					
118.216	0.77	118.216	0.59	118.216	0	118.216	3	118.216	0.12					
118.416	0.35	118.416	0.59	118.416	0	118.416	3	118.416	0.11					
118.616	-0.08	118.616	0.59	118.616	0	118.616	3	118.616	0.11					
118.816	-0.5662624	118.816	0.59	118.816	0	118.816	3	118.816	0.11					
119.016	-0.9882838	119.016	0.59	119.016	0	119.016	3	119.016	0.12					
119.216	-1.39	119.216	0.59	119.216	0	119.216	3	119.216	0.12					
119.416	-1.75	119.416	0.59	119.416	0	119.416	3	119.416	0.11					
119.616	-2.099214	119.616	0.59	119.616	0	119.616	3	119.616	0.11					
119.816	-2.456278	119.816	0.59	119.816	0	119.816	3	119.816	0.12					
120.016	-2.768063	120.016	0.59	120.016	0	120.016	3	120.016	0.12					
120.216	-3.05	120.216	0.59	120.216	0	120.216	3	120.216	0.11					
120.415	-3.34	120.415	0.59	120.415	0	120.415	3	120.415	0.11					
120.615	-3.61	120.615	0.58	120.615	0	120.615	3	120.615	0.11					
120.815	-3.887346	120.815	0.58	120.815	0	120.815	3	120.815	0.11					
121.015	-4.145924	121.015	0.58	121.015	0	121.015	3	121.015	0.11					
121.215	-4.38	121.215	0.58	121.215	0	121.215	3	121.215	0.11					
121.415	-4.6	121.415	0.58	121.415	0	121.415	3	121.415	0.11					
121.615	-4.8	121.615	0.58	121.615	0	121.615	3	121.615	0.11					
121.815	-5.008276	121.815	0.58	121.815	0	121.815	3	121.815	0.11					
122.015	-5.280694	122.015	0.58	122.015	0	122.015	3	122.015	0.11					
122.215	-5.49	122.215	0.58	122.215	0	122.215	3	122.215	0.11					
122.415	-5.65	122.415	0.58	122.415	0	122.415	3	122.415	0.11					
122.615	-5.82	122.615	0.58	122.615	0	122.615	3	122.615	0.11					
122.815	-6.967878	122.815	0.58	122.815	0	122.815	3	122.815	0.03					
123.015	-6.9	123.015	0.58	123.015	0	123.015	3	123.015	0.09					
123.215	-6.71	123.215	0.58	123.215	0	123.215	3	123.215	0.11					
123.415	-6.38	123.415	0.58	123.415	0	123.415	3	123.415	0.12					
123.615	-5.867437	123.615	0.58	123.615	0	123.615	3	123.615	0.11					
123.815	-4.735377	123.815	0.58	123.815	0	123.815	3	123.815	0.11					
124.015	-2.793089	124.015	0.58	124.015	0	124.015	3	124.015	0.11					
124.215	-0.65	124.215	0.58	124.215	0	124.215	3	124.215	0.12					
124.415	0.96	124.415	0.58	124.415	0	124.415	3	124.415	0.11					
124.615	2.094244	124.615	0.58	124.615	0	124.615	3	124.615	0.11					
124.815	2.378741	124.815	0.58	124.815	0	124.815	3	124.815	0.11					
125.015	1.553588	125.015	0.58	125.015	0	125.015	3	125.015	0.11					
125.215	0.02	125.215	0.58	125.215	0	125.215	3	125.215	0.11					
125.414	-1.44	125.414	0.58	125.414	0	125.414	3	125.414	0.09					
125.614	-2.77	125.614	0.58	125.614	0	125.614	3	125.614	0.08					
125.814	-4.118856	125.814	0.58	125.814	0	125.814	3	125.814	0.08					
126.014	-5.311625	126.014	0.58	126.014	0	126.014	3	126.014	0.08					
126.214	-6.25	126.214	0.58	126.214	0	126.214	3	126.214	0.08					
126.414	-6.95	126.414	0.58	126.414	0	126.414	3	126.414	0.08					
126.614	-7.53	126.614	0.58	126.614	0	126.614	3	126.614	0.08					
126.814	-7.998573	126.814	0.58	126.814	0	126.814	3	126.814	0.07					
127.014	-8.298444	127.014	0.58	127.014	0	127.014	3	127.014	0.07					
127.214	-8.107985	127.214	0.58	127.214	0	127.214	3	127.214	0.07					
127.414	-7.18	127.414	0.58	127.414	0	127.414	3	127.414	0.07					
127.614	-5.44	127.614	0.58	127.614	0	127.614	3	127.614	0.07					
127.814	-2.985847	127.814	0.58	127.814	0	127.814	3	127.814	0.07					
128.014	0.2531298	128.014	0.58	128.014	0	128.014	3	128.014	0.07					
128.214	3.977866	128.214	0.58	128.214	0	128.214	3	128.214	0.07					
128.414	7.8	128.414	0.59	128.414	0	128.414	3	128.414	0.07					
128.614	11.39	128.614	0.59	128.614	0	128.614	3	128.614	0.07					
128.814	14.65038	128.814	0.61	128.814	0	128.814	3	128.814	0.07					
129.014	17.3425	129.014	0.63	129.014	0	129.014	3	129.014	0.07					
129.214	18.98425	129.214	0.66	129.214	0	129.214	3	129.214	0.05					
129.414	19.38	129.414	0.75	129.414	0	129.414	3	129.414	0.05					
129.614	18.94	129.614	0.85	129.614	0	129.614	3	129.614	0.05					
129.814	18.23	129.814	1.013008	129.814	0	129.814	3	129.814	0.07					
130.014	18.09278	130.014	1.25	130.014	0	130.014	3	130.014	0.07					
130.214	18.99939	130.214	1.62	130.214	0	130.214	3	130.214	0.07					
130.414	20.54	130.414	1.99	130.414	0	130.414	3	130.414	0.07					
130.613	21.84	130.613	2.541038	130.613	0	130.613	3	130.613	0.05					
130.813	22.41	130.813	3.159771	130.813	0	130.813	3	130.813	0.05					
131.013	22.3461	131.013	3.75	131.013	0	131.013	3	131.013	0.05					
131.213	21.97488	131.213	4.3	131.213	0	131.213	3	131.213	0.05					
131.413	21.44293	131.413	4.99	131.413	0	131.413	3	131.413	0.05					
131.613	20.4	131.613	5.54	131.613	0	131.613	3	131.613	0.05					
131.813	18.47	131.813	6.220443	131.813	0	131.813	3	131.813	0.04					
132.013	15.83037	132.013	6.908842	132.013	0	132.013	3	132.013	0.04					
132.213	13.46679	132.213	7.53	132.213	0	132.213	3	132.213	0.05					
132.413	11.87576	132.413	8.14	132.413	0	132.413	3	132.413	0.05					
132.613	10.3	132.613	8.93	132.613	0	132.613	3	132.613	0.05					
132.813	8.68	132.813	9.699314	132.813	0	132.813	3	132.813	0.05					
133.013	7.474015	133.013	10.38	133.013	0	133.013	3	133.013	0.04					
133.213	6.863649	133.213	11.17	133.213	0	133.213	3	133.213	0.05					
133.413	6.69	133.413	11.76	133.413	0	133.413	3	133.413	0.04					
133.613	6.81	133.613	12.33	133.613	0	133.613	3	133.613	0.05					
133.813	7.14	133.813	13	133.813	0	133.813	3	133.813	0.05					
134.013	7.51	134.013	13.59549	134.013	0	134.013	3	134.013	0.04					
134.213	7.814092	134.213	14.08	134.213	0	134.213	3	134.213	0.04					
134.413	8.016153	134.413	14.61	134.413	0	134.413	3	134.413	0.04					
134.613	8.13	134.613	14.99	134.613	0	134.613	3	134.613	0.05					
134.813	8.12	134.813	15.39646	134.813	0	134.813	3	134.813	0.04					
135.013	8.03	135.013	15.7351	135.013	0	135.013	3	135.013	0.05					
135.213	8.028427	135.213	16.02	135.213	0	135.213	3	135.213	0.05					
135.413	8.203963	135.413	16.24	135.413	0	135.413	3	135.413	0.04					
135.613	8.51	135.613	16.46	135.613	0	135.613	3	135.613	0.05					
135.813	8.92	135.813	16.6	135.813	0	135.813	3	135.813	0.04					
136.013	9.33	136.013	16.74732	136.013	0	136.013	3	136.013	0.05					
136.213	9.686198	136.213	16.85873	136.213	0	136.213	3	136.213	0.05					
136.413	9.791204	136.413	16.95	136.413	0	136.413	3	136.413	0.05					
136.612	9.651063	136.612	17.01	136.612	0	136.612	3	136.612	0.05					
136.812	9.44	136.812	17.06901	136.812	0	136.812	3	136.812	0.05					
137.012	9.2	137.012	17.11907	137.012	0	137.012	3	137.012	0.05					
137.212	8.971741	137.212	17.15	137.212	0	137.212	3	137.212	0.05					
137.412	8.66404	137.412	17.18	137.412	0	137.412	3	137.412	0.05					
137.612	8.410748	137.612	17.2	137.612	0	137.612	3	137.612	0.05					
137.812	8.15	137.812	17.21	137.812	0	137.812	3	137.812	0.04					
138.012	7.89	138.012	17.22	138.012	0	138.012	3	138.012	0.04					
138.212	7.590565	138.212	17.23	138.212	0	138.212	3	138.212	0.05					
138.412	7.282012	138.412	17.24	138.412	0	138.412	3	138.412	0.05					
138.612	6.990885	138.612	17.25	138.612	0	138.612	3	138.612	0.04					
138.812	6.72	138.812	17.25	138.812	0	138.812	3	138.812	0.04					
139.012	6.45	139.012	17.26	139.012	0	139.012	3	139.012	0.05					
139.212	6.200168	139.212	17.27	139.212	0	139.212	3	139.212	0.05					
139.412	5.960275	139.412	17.27	139.412	0	139.412	3	139.412	0.04					
139.612	5.710092	139.612	17.28	139.612	0	139.612	3	139.612	0.05					
139.812	5.47	139.812	17.28002	139.812	0	139.812	3	139.812	0.05					
140.012	5.239908	140.012	17.29	140.012	0	140.012	3	140.012	0.05					
140.212	5.01945	140.212	17.3	140.212	0	140.212	3	140.212	0.05					
140.412	4.749404	140.412	17.3	140.412	0	140.412	3	140.412	0.04					
140.612	4.49	140.612	17.31	140.612	0	140.612	3	140.612	0.05					
140.812	4.26	140.812	17.31	140.812	0	140.812	3	140.812	0.05					
141.012	4.049511	141.012	17.31	141.012	0	141.012	3	141.012	0.05					
141.212	3.838931	141.212	17.31	141.212	0	141.212	3	141.212	0.05					
141.412	3.60878	141.412	17.31	141.412	0	141.412	3	141.412	0.05					
141.612	3.38	141.612	17.31	141.612	0	141.612	3	141.612	0.05					
141.812	3.22	141.812	17.31	141.812	0	141.812	3	141.812	0.05					
142.012	3.09	142.012	17.3	142.012	0	142.012	3	142.012	0.04					
142.212	2.95	142.212	17.3	142.212	0	142.212	3	142.212	0.05					
142.412	2.839099	142.412	17.3	142.412	0	142.412	3	142.412	0.05					
142.611	2.73	142.611	17.3	142.611	0	142.611	3	142.611	0.05					
142.811	2.66	142.811	17.31	142.811	0	142.811	3	142.811	0.05					
143.011	2.62	143.011	17.31	143.011	0	143.011	3	143.011	0.04					
143.211	2.518763	143.211	17.31	143.211	0	143.211	3	143.211	0.05					
143.411	2.428689	143.411	17.31	143.411	0	143.411	3	143.411	0.04					
143.611	2.42	143.611	17.31	143.611	0	143.611	3	143.611	0.04					
143.811	2.39	143.811	17.31	143.811	0	143.811	3	143.811	0.05					
144.011	2.39	144.011	17.31	144.011	0	144.011	3	144.011	0.05					
144.211	2.401542	144.211	17.3	144.211	0	144.211	3	144.211	0.05					
144.411	2.38	144.411	17.3	144.411	0	144.411	3	144.411	0.04					
144.611	2.378305	144.611	17.3	144.611	0	144.611	3	144.611	0.04					
144.811	2.36	144.811	17.3	144.811	0	144.811	3	144.811	0.04					
145.011	2.34	145.011	17.3	145.011	0	145.011	3	145.011	0.04					
145.211	1.89	145.211	17.31	145.211	20	145.211	3	145.211	0.03					
145.411	2.02	145.411	17.31	145.411	20	145.411	3	145.411	0.05					
145.611	2.22	145.611	17.31	145.611	20	145.611	3	145.611	0.05					
145.811	2.46	145.811	17.31	145.811	20	145.811	3	145.811	0.05					
146.011	2.64	146.011	17.3	146.011	20	146.011	3	146.011	0.05					
146.211	2.72	146.211	17.3	146.211	20	146.211	3	146.211	0.05					
146.411	2.72	146.411	17.29	146.411	20	146.411	3	146.411	0.04					
146.611	2.71	146.611	17.29	146.611	20	146.611	3	146.611	0.04					
146.811	2.82	146.811	17.28	146.811	20	146.811	3	146.811	0.05					
147.011	2.98	147.011	17.29	147.011	20	147.011	3	147.011	0.05					
147.211	3.01	147.211	17.29	147.211	20	147.211	3	147.211	0.05					
147.411	2.907283	147.411	17.3	147.411	20	147.411	3	147.411	0.05					
147.611	2.79	147.611	17.3	147.611	20	147.611	3	147.611	0.05					
147.811	2.72	147.811	17.3	147.811	20	147.811	3	147.811	0.05					
148.011	2.66	148.011	17.3	148.011	20	148.011	3	148.011	0.05					
148.211	2.6	148.211	17.31	148.211	20	148.211	3	148.211	0.05					
148.411	2.556982	148.411	17.31	148.411	20	148.411	3	148.411	0.04					
148.61	2.54	148.61	17.3	148.61	20	148.61	3	148.61	0.05					
148.81	2.53	148.81	17.3	148.81	20	148.81	3	148.81	0.05					
149.01	2.55	149.01	17.3	149.01	20	149.01	3	149.01	0.05					
149.21	2.54	149.21	17.3	149.21	20	149.21	3	149.21	0.05					
149.41	2.53	149.41	17.31	149.41	20	149.41	3	149.41	0.05					
149.61	2.56	149.61	17.31	149.61	20	149.61	3	149.61	0.05					
149.81	2.6	149.81	17.31	149.81	20	149.81	3	149.81	0.05					
150.01	2.67	150.01	17.31	150.01	20	150.01	3	150.01	0.05					
150.21	2.783664	150.21	17.32	150.21	20	150.21	3	150.21	0.05					
150.41	2.974878	150.41	17.32	150.41	20	150.41	3	150.41	0.05					
150.61	3.271359	150.61	17.32	150.61	20	150.61	3	150.61	0.05					
150.81	3.79	150.81	17.32	150.81	20	150.81	3	150.81	0.05					
151.01	4.72	151.01	17.33	151.01	20	151.01	3	151.01	0.05					
151.21	6.376631	151.21	17.37	151.21	20	151.21	3	151.21	0.05					
151.41	9.407329	151.41	17.44	151.41	20	151.41	3	151.41	0.04					
151.61	20.99278	151.61	17.55	151.61	20	151.61	3	151.61	0.05					
151.81	83.32	151.81	17.66	151.81	20	151.81	3	151.81	0.05					
152.01	280	152.01	17.8043	152.01	20	152.01	3	152.01	0.05					
152.21	779.49	152.21	17.91438	152.21	20	152.21	3	152.21	0.05					
152.41	1510.488	152.41	17.99	152.41	20	152.41	3	152.41	0.05					
152.61	1965.308	152.61	18.02	152.61	20	152.61	3	152.61	0.05					
152.81	2000	152.81	18.02	152.81	20	152.81	3	152.81	0.05					
153.01	2000	153.01	17.9853	153.01	20	153.01	3	153.01	0.05					
153.21	2000	153.21	17.91523	153.21	20	153.21	3	153.21	0.05					
153.41	2000	153.41	17.87	153.41	20	153.41	3	153.41	0.05					
153.61	2000	153.61	17.85	153.61	20	153.61	3	153.61	0.05					
153.81	2000	153.81	17.87	153.81	20	153.81	3	153.81	0.05					
154.01	2000	154.01	17.94	154.01	20	154.01	3	154.01	0.05					
154.21	2000	154.21	18.01508	154.21	20	154.21	3	154.21	0.05					
154.41	2000	154.41	18.11513	154.41	20	154.41	3	154.41	0.05					
154.609	2000	154.609	18.2	154.609	20	154.609	3	154.609	0.05					
154.809	2000	154.809	18.3	154.809	20	154.809	3	154.809	0.05					
155.009	1999.99	155.009	18.37	155.009	20	155.009	3	155.009	0.05					
155.209	1938.32	155.209	18.46096	155.209	20	155.209	3	155.209	0.05					
155.409	1758.471	155.409	18.52553	155.409	20	155.409	3	155.409	0.05					
155.609	1480.321	155.609	18.6	155.609	20	155.609	3	155.609	0.05					
155.809	1223.217	155.809	18.66	155.809	20	155.809	3	155.809	0.05					
156.009	1009.17	156.009	18.71	156.009	20	156.009	3	156.009	0.05					
156.209	826.94	156.209	18.75578	156.209	20	156.209	3	156.209	0.05					
156.409	672.8708	156.409	18.8	156.409	20	156.409	3	156.409	0.05					
156.609	541.0081	156.609	18.83	156.609	20	156.609	3	156.609	0.05					
156.809	432.5847	156.809	18.86	156.809	20	156.809	3	156.809	0.05					
157.009	348.54	157.009	18.88	157.009	20	157.009	3	157.009	0.05					
157.209	286.03	157.209	18.9	157.209	20	157.209	3	157.209	0.05					
157.409	233.85	157.409	18.91	157.409	20	157.409	3	157.409	0.05					
157.609	190.6303	157.609	18.92	157.609	20	157.609	3	157.609	0.05					
157.809	157.8264	157.809	18.92	157.809	20	157.809	3	157.809	0.05					
158.009	133.25	158.009	18.92	158.009	20	158.009	3	158.009	0.05					
158.209	115.72	158.209	18.92	158.209	20	158.209	3	158.209	0.05					
158.409	102.26	158.409	18.92	158.409	20	158.409	3	158.409	0.05					
158.609	91.00598	158.609	18.92	158.609	20	158.609	3	158.609	0.05					
158.809	82.41047	158.809	18.91	158.809	20	158.809	3	158.809	0.05					
159.009	76.51823	159.009	18.91	159.009	20	159.009	3	159.009	0.05					
159.209	72.09	159.209	18.91	159.209	20	159.209	3	159.209	0.04					
159.409	68.63	159.409	18.9	159.409	20	159.409	3	159.409	0.05					
159.609	65.86307	159.609	18.9	159.609	20	159.609	3	159.609	0.05					
159.809	63.68501	159.809	18.89	159.809	20	159.809	3	159.809	0.05					
160.009	61.99017	160.009	18.89	160.009	20	160.009	3	160.009	0.05					
160.209	60.66	160.209	18.88281	160.209	20	160.209	3	160.209	0.05					
160.408	59.59	160.408	18.88	160.408	20	160.408	3	160.408	0.05					
160.608	58.66809	160.608	18.88	160.608	20	160.608	3	160.608	0.05					
160.808	57.92558	160.808	18.88	160.808	20	160.808	3	160.808	0.05					
161.008	57.36994	161.008	18.88	161.008	20	161.008	3	161.008	0.05					
161.208	56.87	161.208	18.88	161.208	20	161.208	3	161.208	0.05					
161.408	56.48	161.408	18.88	161.408	20	161.408	3	161.408	0.05					
161.608	56.16	161.608	18.88	161.608	20	161.608	3	161.608	0.05					
161.808	55.88892	161.808	18.88	161.808	20	161.808	3	161.808	0.05					
162.008	55.60436	162.008	18.89	162.008	20	162.008	3	162.008	0.05					
162.208	55.33	162.208	18.89	162.208	20	162.208	3	162.208	0.05					
162.408	55.1	162.408	18.89	162.408	20	162.408	3	162.408	0.05					
162.608	54.86	162.608	18.89	162.608	20	162.608	3	162.608	0.05					
162.808	54.63192	162.808	18.88	162.808	20	162.808	3	162.808	0.05					
163.008	54.50531	163.008	18.88	163.008	20	163.008	3	163.008	0.05					
163.208	54.36	163.208	18.88	163.208	20	163.208	3	163.208	0.05					
163.408	54.2	163.408	18.88	163.408	20	163.408	3	163.408	0.05					
163.608	54.1	163.608	18.88	163.608	20	163.608	3	163.608	0.05					
163.808	53.94152	163.808	18.88	163.808	20	163.808	3	163.808	0.05					
164.008	53.83	164.008	18.88	164.008	20	164.008	3	164.008	0.05					
164.208	53.7114	164.208	18.88	164.208	20	164.208	3	164.208	0.05					
164.408	53.63	164.408	18.88	164.408	20	164.408	3	164.408	0.05					
164.608	53.49	164.608	18.88	164.608	20	164.608	3	164.608	0.05					
164.808	53.33244	164.808	18.89	164.808	20	164.808	3	164.808	0.05					
165.008	53.21213	165.008	18.89	165.008	20	165.008	3	165.008	0.05					
165.208	53.15	165.208	18.89	165.208	20	165.208	3	165.208	0.05					
165.408	53.06	165.408	18.9	165.408	20	165.408	3	165.408	0.05					
165.608	53.01	165.608	18.91	165.608	20	165.608	3	165.608	0.05					
165.808	52.95	165.808	18.91	165.808	20	165.808	3	165.808	0.05					
166.008	52.86153	166.008	18.92	166.008	20	166.008	3	166.008	0.05					
166.208	52.1893	166.208	18.93	166.208	40	166.208	3	166.208	0.03					
166.407	52.29	166.407	18.93	166.407	40	166.407	3	166.407	0.04					
166.607	52.45	166.607	18.92	166.607	40	166.607	3	166.607	0.05					
166.807	52.54	166.807	18.92	166.807	40	166.807	3	166.807	0.05					
167.007	52.54	167.007	18.91	167.007	40	167.007	3	167.007	0.04					
167.207	52.50031	167.207	18.9	167.207	40	167.207	3	167.207	0.04					
167.407	52.44	167.407	18.9	167.407	40	167.407	3	167.407	0.05					
167.607	52.36	167.607	18.9	167.607	40	167.607	3	167.607	0.04					
167.807	52.3	167.807	18.89	167.807	40	167.807	3	167.807	0.05					
168.007	52.21009	168.007	18.89	168.007	40	168.007	3	168.007	0.05					
168.207	52.09	168.207	18.89	168.207	40	168.207	3	168.207	0.05					
168.407	51.96	168.407	18.89	168.407	40	168.407	3	168.407	0.05					
168.607	51.8	168.607	18.89	168.607	40	168.607	3	168.607	0.05					
168.807	51.63982	168.807	18.89	168.807	40	168.807	3	168.807	0.0401849					
169.007	51.52895	169.007	18.89	169.007	40	169.007	3	169.007	0.05					
169.207	51.4196	169.207	18.9	169.207	40	169.207	3	169.207	0.05					
169.407	51.28	169.407	18.9	169.407	40	169.407	3	169.407	0.05					
169.607	51.18	169.607	18.9	169.607	40	169.607	3	169.607	0.0689313					
169.807	51.07	169.807	18.9	169.807	40	169.807	3	169.807	0.05					
170.007	50.98	170.007	18.9	170.007	40	170.007	3	170.007	0.05					
170.207	50.9107	170.207	18.9	170.207	40	170.207	3	170.207	0.04					
170.407	50.86	170.407	18.9	170.407	40	170.407	3	170.407	0.05					
170.607	50.85	170.607	18.9	170.607	40	170.607	3	170.607	0.05					
170.807	50.75901	170.807	18.9	170.807	40	170.807	3	170.807	0.05					
171.007	50.62809	171.007	18.9	171.007	40	171.007	3	171.007	0.05					
171.207	50.5378	171.207	18.89	171.207	40	171.207	3	171.207	0.05					
171.407	50.42	171.407	18.89	171.407	40	171.407	3	171.407	0.05					
171.607	50.35	171.607	18.89	171.607	40	171.607	3	171.607	0.06752672					
171.807	50.3	171.807	18.89	171.807	40	171.807	3	171.807	0.04871756					
172.007	50.37407	172.007	18.92	172.007	40	172.007	3	172.007	0.05					
172.207	50.82983	172.207	18.96	172.207	40	172.207	3	172.207	0.05					
172.406	52.06	172.406	19.05	172.406	40	172.406	3	172.406	0.05					
172.606	54.25	172.606	19.15154	172.606	40	172.606	3	172.606	0.05					
172.806	57.43429	172.806	19.30317	172.806	40	172.806	3	172.806	0.04841221					
173.006	61.38167	173.006	19.47	173.006	40	173.006	3	173.006	0.04166666					
173.206	66.13368	173.206	19.64	173.206	40	173.206	3	173.206	0.05					
173.406	71.02	173.406	19.81	173.406	40	173.406	3	173.406	0.05					
173.606	75.43	173.606	19.96	173.606	40	173.606	3	173.606	0.05					
173.806	79.66	173.806	20.07397	173.806	40	173.806	3	173.806	0.05					
174.006	83.47643	174.006	20.19206	174.006	40	174.006	3	174.006	0.05					
174.206	87.13338	174.206	20.26	174.206	40	174.206	3	174.206	0.05					
174.406	90.353	174.406	20.32	174.406	40	174.406	3	174.406	0.05					
174.606	92.86	174.606	20.36	174.606	40	174.606	3	174.606	0.05					
174.806	94.96	174.806	20.39	174.806	40	174.806	3	174.806	0.05					
175.006	96.71704	175.006	20.41	175.006	40	175.006	3	175.006	0.05					
175.206	98.17786	175.206	20.43	175.206	40	175.206	3	175.206	0.05					
175.406	99.25031	175.406	20.44	175.406	40	175.406	3	175.406	0.05					
175.606	99.96	175.606	20.44	175.606	40	175.606	3	175.606	0.05					
175.806	100.42	175.806	20.45	175.806	40	175.806	3	175.806	0.04					
176.006	100.7428	176.006	20.45	176.006	40	176.006	3	176.006	0.05					
176.206	100.9557	176.206	20.45	176.206	40	176.206	3	176.206	0.05					
176.406	101.1029	176.406	20.45	176.406	40	176.406	3	176.406	0.05					
176.606	101.12	176.606	20.45	176.606	40	176.606	3	176.606	0.05					
176.806	101.08	176.806	20.46	176.806	40	176.806	3	176.806	0.05					
177.006	101.03	177.006	20.46	177.006	40	177.006	3	177.006	0.05					
177.206	100.9568	177.206	20.46	177.206	40	177.206	3	177.206	0.05					
177.406	100.8367	177.406	20.46	177.406	40	177.406	3	177.406	0.05					
177.606	100.67	177.606	20.46	177.606	40	177.606	3	177.606	0.05					
177.806	100.53	177.806	20.46	177.806	40	177.806	3	177.806	0.05					
178.006	100.39	178.006	20.46	178.006	40	178.006	3	178.006	0.05					
178.206	100.2529	178.206	20.45	178.206	40	178.206	3	178.206	0.05					
178.405	100.0964	178.405	20.45	178.405	40	178.405	3	178.405	0.05					
178.605	99.94	178.605	20.46	178.605	40	178.605	3	178.605	0.05					
178.805	99.82	178.805	20.46	178.805	40	178.805	3	178.805	0.05					
179.005	99.73	179.005	20.46	179.005	40	179.005	3	179.005	0.05					
179.205	99.64606	179.205	20.46	179.205	40	179.205	3	179.205	0.05					
179.405	99.56805	179.405	20.46	179.405	40	179.405	3	179.405	0.05					
179.605	99.42	179.605	20.45	179.605	40	179.605	3	179.605	0.05					
179.805	99.27	179.805	20.45	179.805	40	179.805	3	179.805	0.05					
180.005	99.14	180.005	20.45	180.005	40	180.005	3	180.005	0.05					
180.205	98.98	180.205	20.44	180.205	40	180.205	3	180.205	0.05					
180.405	98.79572	180.405	20.44	180.405	40	180.405	3	180.405	0.05					
180.605	98.73	180.605	20.44	180.605	40	180.605	3	180.605	0.05					
180.805	98.67	180.805	20.45	180.805	40	180.805	3	180.805	0.05					
181.005	98.61	181.005	20.45	181.005	40	181.005	3	181.005	0.05					
181.205	98.63	181.205	20.46	181.205	40	181.205	3	181.205	0.05					
181.405	98.59063	181.405	20.46	181.405	40	181.405	3	181.405	0.05					
181.605	98.55	181.605	20.46	181.605	40	181.605	3	181.605	0.04					
181.805	98.5	181.805	20.46	181.805	40	181.805	3	181.805	0.04481707					
182.005	98.46	182.005	20.46	182.005	40	182.005	3	182.005	0.05					
182.205	98.39493	182.205	20.46	182.205	40	182.205	3	182.205	0.05					
182.405	98.33501	182.405	20.46	182.405	40	182.405	3	182.405	0.05					
182.605	98.28494	182.605	20.47	182.605	40	182.605	3	182.605	0.05					
182.805	98.24	182.805	20.47	182.805	40	182.805	3	182.805	0.04487805					
183.005	98.13	183.005	20.47	183.005	40	183.005	3	183.005	0.04					
183.205	98.02	183.205	20.48	183.205	40	183.205	3	183.205	0.04528505					
183.405	97.90922	183.405	20.48	183.405	40	183.405	3	183.405	0.05					
183.605	97.8	183.605	20.48	183.605	40	183.605	3	183.605	0.05					
183.805	97.72	183.805	20.48	183.805	40	183.805	3	183.805	0.05					
184.005	97.67	184.005	20.48	184.005	40	184.005	3	184.005	0.05					
184.204	97.61	184.204	20.47436	184.204	40	184.204	3	184.204	0.05					
184.404	97.52428	184.404	20.47	184.404	40	184.404	3	184.404	0.05					
184.604	97.44849	184.604	20.47	184.604	40	184.604	3	184.604	0.04424427					
184.804	97.32	184.804	20.47	184.804	40	184.804	3	184.804	0.05					
185.004	97.23	185.004	20.47	185.004	40	185.004	3	185.004	0.04587786					
185.204	97.19	185.204	20.47	185.204	40	185.204	3	185.204	0.05					
185.404	97.19	185.404	20.47	185.404	40	185.404	3	185.404	0.05					
185.604	97.10768	185.604	20.47	185.604	40	185.604	3	185.604	0.05					
185.804	97.03	185.804	20.47	185.804	40	185.804	3	185.804	0.05					
186.004	96.99	186.004	20.47	186.004	40	186.004	3	186.004	0.05					
186.204	96.93	186.204	20.47	186.204	40	186.204	3	186.204	0.05					
186.404	96.84358	186.404	20.47	186.404	40	186.404	3	186.404	0.05					
186.604	96.75354	186.604	20.46	186.604	40	186.604	3	186.604	0.04645802					
186.804	96.65348	186.804	20.46	186.804	40	186.804	3	186.804	0.05					
187.004	96.54	187.004	20.46	187.004	40	187.004	3	187.004	0.05					
187.204	96.46	187.204	20.46	187.204	40	187.204	3	187.204	0.05					
187.404	96.39	187.404	20.46	187.404	40	187.404	3	187.404	0.05					
187.604	96.36	187.604	20.46	187.604	40	187.604	3	187.604	0.05					
187.804	96.30307	187.804	20.47	187.804	40	187.804	3	187.804	0.0430687					
188.004	96.28	188.004	20.47	188.004	40	188.004	3	188.004	0.05					
188.204	96.29	188.204	20.47	188.204	40	188.204	3	188.204	0.05					
188.404	96.31	188.404	20.47	188.404	40	188.404	3	188.404	0.05					
188.604	96.27	188.604	20.47	188.604	40	188.604	3	188.604	0.05					
188.804	96.25	188.804	20.47	188.804	40	188.804	3	188.804	0.05					
189.004	96.25	189.004	20.47	189.004	40	189.004	3	189.004	0.05					
189.204	96.22	189.204	20.47	189.204	40	189.204	3	189.204	0.05					
189.404	96.21	189.404	20.46249	189.404	40	189.404	3	189.404	0.05					
189.604	96.18244	189.604	20.46	189.604	40	189.604	3	189.604	0.05					
189.804	96.16	189.804	20.46	189.804	40	189.804	3	189.804	0.05					
190.004	96.14	190.004	20.45	190.004	40	190.004	3	190.004	0.05					
190.203	96.09	190.203	20.45	190.203	40	190.203	3	190.203	0.05					
190.403	96.07	190.403	20.45	190.403	40	190.403	3	190.403	0.05					
190.603	96.02786	190.603	20.45	190.603	40	190.603	3	190.603	0.05					
190.803	95.97	190.803	20.45	190.803	40	190.803	3	190.803	0.05					
191.003	95.952	191.003	20.46	191.003	40	191.003	3	191.003	0.05					
191.203	95.96	191.203	20.46	191.203	40	191.203	3	191.203	0.05					
191.403	95.97	191.403	20.47	191.403	100	191.403	3	191.403	0.05					
191.603	95.96	191.603	20.47	191.603	100	191.603	3	191.603	0.05					
191.803	95.94	191.803	20.47	191.803	100	191.803	3	191.803	0.05					
192.003	95.95	192.003	20.47	192.003	100	192.003	3	192.003	0.05					
192.203	95.92	192.203	20.47	192.203	100	192.203	3	192.203	0.05					
192.403	95.9	192.403	20.48	192.403	100	192.403	3	192.403	0.05					
192.603	95.9	192.603	20.48	192.603	100	192.603	3	192.603	0.05					
192.803	95.89	192.803	20.48	192.803	100	192.803	3	192.803	0.05					
193.003	95.8713	193.003	20.48	193.003	100	193.003	3	193.003	0.05					
193.203	95.87	193.203	20.47	193.203	100	193.203	3	193.203	0.05					
193.403	95.86	193.403	20.47	193.403	100	193.403	3	193.403	0.05					
193.603	95.85	193.603	20.47	193.603	100	193.603	3	193.603	0.05					
193.803	95.83	193.803	20.47	193.803	100	193.803	3	193.803	0.05					
194.003	95.82	194.003	20.47	194.003	100	194.003	3	194.003	0.05					
194.203	95.82	194.203	20.47	194.203	100	194.203	3	194.203	0.05					
194.403	95.8	194.403	20.47	194.403	100	194.403	3	194.403	0.05					
194.603	95.77	194.603	20.48	194.603	100	194.603	3	194.603	0.05					
194.803	95.72935	194.803	20.48	194.803	100	194.803	3	194.803	0.05					
195.003	95.71951	195.003	20.48	195.003	100	195.003	3	195.003	0.05					
195.203	95.71	195.203	20.48	195.203	100	195.203	3	195.203	0.05					
195.403	95.69	195.403	20.48	195.403	100	195.403	3	195.403	0.05					
195.603	95.72	195.603	20.48	195.603	100	195.603	3	195.603	0.05					
195.803	95.75	195.803	20.47026	195.803	100	195.803	3	195.803	0.05					
196.003	95.7798	196.003	20.47	196.003	100	196.003	3	196.003	0.05					
196.202	95.82	196.202	20.47	196.202	100	196.202	3	196.202	0.05					
196.402	95.87	196.402	20.47	196.402	100	196.402	3	196.402	0.05					
196.602	95.91	196.602	20.46	196.602	100	196.602	3	196.602	0.05					
196.802	95.90996	196.802	20.46	196.802	100	196.802	3	196.802	0.05					
197.002	95.9201	197.002	20.48	197.002	100	197.002	3	197.002	0.05					
197.202	96.17	197.202	20.51	197.202	100	197.202	3	197.202	0.05					
197.402	97.01	197.402	20.59096	197.402	100	197.402	3	197.402	0.05					
197.602	99.18594	197.602	20.79079	197.602	100	197.602	3	197.602	0.05					
197.802	103.8176	197.802	21.09	197.802	100	197.802	3	197.802	0.05					
198.002	112.1628	198.002	21.41	198.002	100	198.002	3	198.002	0.05					
198.202	123.34	198.202	21.89	198.202	100	198.202	3	198.202	0.05					
198.402	135.56	198.402	22.32313	198.402	100	198.402	3	198.402	0.05					
198.602	149.2924	198.602	22.87351	198.602	100	198.602	3	198.602	0.05					
198.802	163.1629	198.802	23.34	198.802	100	198.802	3	198.802	0.07					
199.002	177.7471	199.002	23.75	199.002	100	199.002	3	199.002	0.05					
199.202	191.42	199.202	24.05	199.202	100	199.202	3	199.202	0.05					
199.402	202.14	199.402	24.33	199.402	100	199.402	3	199.402	0.05					
199.602	211.04	199.602	24.4922	199.602	100	199.602	3	199.602	0.05					
199.802	218.3459	199.802	24.63	199.802	100	199.802	3	199.802	0.05					
200.002	224.4942	200.002	24.72	200.002	100	200.002	3	200.002	0.05					
200.202	229.32	200.202	24.77	200.202	100	200.202	3	200.202	0.05					
200.402	232.47	200.402	24.8	200.402	100	200.402	3	200.402	0.05					
200.602	234.69	200.602	24.8214	200.602	100	200.602	3	200.602	0.05					
200.802	236.343	200.802	24.84	200.802	100	200.802	3	200.802	0.05					
201.002	237.5214	201.002	24.85	201.002	100	201.002	3	201.002	0.05					
201.202	238.3132	201.202	24.86	201.202	100	201.202	3	201.202	0.07					
201.402	238.87	201.402	24.87	201.402	100	201.402	3	201.402	0.05					
201.602	239.23	201.602	24.87	201.602	100	201.602	3	201.602	0.05					
201.802	239.38	201.802	24.88	201.802	100	201.802	3	201.802	0.05					
202.002	239.48	202.002	24.88	202.002	100	202.002	3	202.002	0.05					
202.201	239.53	202.201	24.88	202.201	100	202.201	3	202.201	0.05					
202.401	239.54	202.401	24.88	202.401	100	202.401	3	202.401	0.05					
202.601	239.5	202.601	24.88	202.601	100	202.601	3	202.601	0.05					
202.801	239.4879	202.801	24.88	202.801	100	202.801	3	202.801	0.05					
203.001	239.4522	203.001	24.88	203.001	100	203.001	3	203.001	0.05					
203.201	239.3977	203.201	24.89	203.201	100	203.201	3	203.201	0.05					
203.401	239.32	203.401	24.89	203.401	100	203.401	3	203.401	0.05					
203.601	239.26	203.601	24.89	203.601	100	203.601	3	203.601	0.05					
203.801	239.2	203.801	24.89	203.801	100	203.801	3	203.801	0.05					
204.001	239.1374	204.001	24.9	204.001	100	204.001	3	204.001	0.05					
204.201	239.08	204.201	24.9	204.201	100	204.201	3	204.201	0.05					
204.401	239.02	204.401	24.9	204.401	100	204.401	3	204.401	0.05					
204.601	238.99	204.601	24.9	204.601	100	204.601	3	204.601	0.05					
204.801	238.95	204.801	24.9	204.801	100	204.801	3	204.801	0.05					
205.001	238.91	205.001	24.9	205.001	100	205.001	3	205.001	0.05					
205.201	238.867	205.201	24.9	205.201	100	205.201	3	205.201	0.05					
205.401	238.8	205.401	24.89	205.401	100	205.401	3	205.401	0.05					
205.601	238.75	205.601	24.89	205.601	100	205.601	3	205.601	0.05					
205.801	238.69	205.801	24.89	205.801	100	205.801	3	205.801	0.05					
206.001	238.63	206.001	24.89	206.001	100	206.001	3	206.001	0.05					
206.201	238.5866	206.201	24.89	206.201	100	206.201	3	206.201	0.05					
206.401	238.55	206.401	24.89	206.401	100	206.401	3	206.401	0.05					
206.601	238.53	206.601	24.89	206.601	100	206.601	3	206.601	0.05					
206.801	238.48	206.801	24.89	206.801	100	206.801	3	206.801	0.05					
207.001	238.45	207.001	24.89363	207.001	100	207.001	3	207.001	0.05					
207.201	238.42	207.201	24.9	207.201	100	207.201	3	207.201	0.05					
207.401	238.4	207.401	24.9	207.401	100	207.401	3	207.401	0.05					
207.601	238.38	207.601	24.91	207.601	100	207.601	3	207.601	0.05					
207.801	238.37	207.801	24.91	207.801	100	207.801	3	207.801	0.05					
208.001	238.32	208.001	24.91403	208.001	100	208.001	3	208.001	0.05					
208.2	238.3	208.2	24.92	208.2	100	208.2	3	208.2	0.05					
208.4	238.3	208.4	24.92	208.4	100	208.4	3	208.4	0.05					
208.6	238.28	208.6	24.92	208.6	100	208.6	3	208.6	0.05					
208.8	238.25	208.8	24.92	208.8	100	208.8	3	208.8	0.04					
209	238.22	209	24.92	209	100	209	3	209	0.05					
209.2	238.17	209.2	24.91	209.2	100	209.2	3	209.2	0.07					
209.4	238.14	209.4	24.91	209.4	100	209.4	3	209.4	0.07					
209.6	238.13	209.6	24.91	209.6	100	209.6	3	209.6	0.05					
209.8	238.08	209.8	24.91	209.8	100	209.8	3	209.8	0.05					
210	238.03	210	24.91	210	100	210	3	210	0.05					
210.2	238	210.2	24.91	210.2	100	210.2	3	210.2	0.05					
210.4	237.9803	210.4	24.91	210.4	100	210.4	3	210.4	0.05					
210.6	237.93	210.6	24.91	210.6	100	210.6	3	210.6	0.05					
210.8	237.89	210.8	24.92	210.8	100	210.8	3	210.8	0.05					
211	237.87	211	24.92	211	100	211	3	211	0.05					
211.2	237.85	211.2	24.93	211.2	100	211.2	3	211.2	0.05					
211.4	237.8197	211.4	24.93	211.4	100	211.4	3	211.4	0.05					
211.6	237.7947	211.6	24.94	211.6	100	211.6	3	211.6	0.05					
211.8	237.79	211.8	24.94	211.8	100	211.8	3	211.8	0.05					
212	237.8	212	24.94	212	100	212	3	212	0.05					
212.2	237.78	212.2	24.93	212.2	100	212.2	3	212.2	0.05					
212.4	237.77	212.4	24.93	212.4	100	212.4	3	212.4	0.05					
212.6	237.7544	212.6	24.92	212.6	100	212.6	3	212.6	0.05					
212.8	237.73	212.8	24.91	212.8	100	212.8	3	212.8	0.05					
213	237.72	213	24.91	213	100	213	3	213	0.05					
213.2	237.7	213.2	24.9	213.2	100	213.2	3	213.2	0.05					
213.4	237.6841	213.4	24.9	213.4	100	213.4	3	213.4	0.05					
213.6	237.69	213.6	24.9	213.6	100	213.6	3	213.6	0.05					
213.8	237.62	213.8	24.9	213.8	100	213.8	3	213.8	0.05					
213.999	237.6	213.999	24.9	213.999	100	213.999	3	213.999	0.05					
214.199	237.6	214.199	24.9	214.199	100	214.199	3	214.199	0.05					
214.399	237.59	214.399	24.9	214.399	100	214.399	3	214.399	0.05					
214.599	237.5663	214.599	24.9	214.599	100	214.599	3	214.599	0.05					
214.799	237.57	214.799	24.9	214.799	100	214.799	3	214.799	0.05					
214.999	237.56	214.999	24.9	214.999	100	214.999	3	214.999	0.05					
215.199	237.54	215.199	24.89	215.199	100	215.199	3	215.199	0.05					
215.399	237.5234	215.399	24.89	215.399	100	215.399	3	215.399	0.07					
215.599	237.47	215.599	24.9	215.599	100	215.599	3	215.599	0.05					
215.799	237.45	215.799	24.9	215.799	100	215.799	3	215.799	0.05					
215.999	237.51	215.999	24.9	215.999	100	215.999	3	215.999	0.05					
216.199	237.5	216.199	24.91	216.199	100	216.199	3	216.199	0.07					
216.399	237.49	216.399	24.91	216.399	100	216.399	3	216.399	0.05					
216.599	237.48	216.599	24.91	216.599	100	216.599	3	216.599	0.05					
216.799	237.48	216.799	24.91	216.799	100	216.799	3	216.799	0.05					
216.999	237.43	216.999	24.91	216.999	100	216.999	3	216.999	0.05					
217.199	237.4	217.199	24.91	217.199	100	217.199	3	217.199	0.05					
217.399	237.38	217.399	24.91	217.399	100	217.399	3	217.399	0.05					
217.599	237.4127	217.599	24.91	217.599	100	217.599	3	217.599	0.05					
217.799	237.3925	217.799	24.91	217.799	100	217.799	3	217.799	0.05					
217.999	237.35	217.999	24.91	217.999	100	217.999	3	217.999	0.05					
218.199	237.34	218.199	24.91	218.199	100	218.199	3	218.199	0.05					
218.399	237.35	218.399	24.91	218.399	100	218.399	3	218.399	0.05					
218.599	237.3023	218.599	24.91	218.599	100	218.599	3	218.599	0.05					
218.799	237.2778	218.799	24.91	218.799	100	218.799	3	218.799	0.07					
218.999	237.28	218.999	24.91	218.999	100	218.999	3	218.999	0.07					
219.199	237.29	219.199	24.9	219.199	100	219.199	3	219.199	0.05					
219.399	237.34	219.399	24.9	219.399	100	219.399	3	219.399	0.05					
219.599	237.3519	219.599	24.9	219.599	100	219.599	3	219.599	0.05					
219.799	237.33	219.799	24.9	219.799	100	219.799	3	219.799	0.04					
219.998	237.3017	219.998	24.9	219.998	100	219.998	3	219.998	0.05					
220.198	237.3	220.198	24.9	220.198	100	220.198	3	220.198	0.05					
220.398	237.27	220.398	24.9	220.398	100	220.398	3	220.398	0.05					
220.598	237.28	220.598	24.91	220.598	100	220.598	3	220.598	0.05					
220.798	237.28	220.798	24.91	220.798	100	220.798	3	220.798	0.05					
220.998	237.28	220.998	24.91	220.998	100	220.998	3	220.998	0.05					
221.198	237.27	221.198	24.91	221.198	100	221.198	3	221.198	0.05					
221.398	237.27	221.398	24.91	221.398	100	221.398	3	221.398	0.07					
221.598	237.26	221.598	24.9	221.598	100	221.598	3	221.598	0.05					
221.798	237.2611	221.798	24.9	221.798	100	221.798	3	221.798	0.05					
221.998	237.24	221.998	24.9	221.998	100	221.998	3	221.998	0.05					
222.198	237.21	222.198	24.9	222.198	100	222.198	3	222.198	0.05					
222.398	237.2	222.398	24.9	222.398	100	222.398	3	222.398	0.05					
222.598	237.19	222.598	24.9	222.598	100	222.598	3	222.598	0.05					
222.798	237.2	222.798	24.89	222.798	100	222.798	3	222.798	0.05					
222.998	237.22	222.998	24.89	222.998	100	222.998	3	222.998	0.05					
223.198	237.24	223.198	24.89	223.198	100	223.198	3	223.198	0.05					
223.398	237.23	223.398	24.9	223.398	100	223.398	3	223.398	0.05					
223.598	237.21	223.598	24.9	223.598	100	223.598	3	223.598	0.05					
223.798	237.19	223.798	24.9	223.798	100	223.798	3	223.798	0.05					
223.998	237.19	223.998	24.9	223.998	100	223.998	3	223.998	0.05					
224.198	237.18	224.198	24.9	224.198	100	224.198	3	224.198	0.05					
224.398	237.2	224.398	24.9	224.398	100	224.398	3	224.398	0.05					
224.598	237.2	224.598	24.9	224.598	100	224.598	3	224.598	0.05					
224.798	237.1901	224.798	24.9	224.798	100	224.798	3	224.798	0.05					
